# scan = 166
# date = 9/8/2024
# time = 7:39:48 AM
# proposal = 32905
# experiment = Effects of electric field on phonon dispersion and lifetimes of poled PMN-30PT
# experiment_number = 812
# command = scan h 2.5 k 0.05 l 0 e 15 0.5 0.25 preset mcu 30
# builtin_command = scan h 2.5 k 0.05 l 0 e 15 0.5 0.25 preset mcu 30
# users = George Yumnam, Michael Manley, Puspa Upreti, Raphael Hermann, SHAOFEI WANG
# local_contact = Songxue Chi
# scan_title = (2.5,0.05,0) X to M transverse mode scan at 390 V after voltage breaks
# monochromator = PG002
# analyzer = Pg002
# sense = -+-
# collimation = 48-40-40-120
# samplename = PMN-30PT
# sampletype = crystal
# samplemosaic = 30.000000
# latticeconstants = 4.023634,4.023634,4.023634,90.000000,90.000000,90.000000
# ubmatrix = -0.008055,-0.248252,-0.008588,-0.248328,0.007840,0.006285,-0.006007,0.008785,-0.248304
# mode = 0
# plane_normal = 0.034555,-0.025290,0.999083
# ubconf = UB04Sep2024_115522AM.ini
# preset_type = normal 
# preset_channel = mcu
# preset_value = 30.000000
# def_x = e
# def_y = detector
# col_headers = 
#   Pt.          h          k          l          e       time   detector    monitor        mcu focal_length         m1         m2   mcrystal       marc     mtrans     mfocus       ampl         dc       freq     output       temp     temp_2         s1         s2        sgl        sgu        bbb        bbl        bbr        bbt        bab        bal        bar        bat        stl        stu         a1         a2          q         ei         ef   ampl_out output_state        vti     sample
      1     2.5001     0.0500    -0.0001    15.0019     27.369     30.000 194311.000     30.000    46.9938   -20.0773   -28.6389   120.0962    -0.1480    -3.0001   -49.8518     0.0000   390.0000     0.0000     1.0000   300.0000   300.0000   -37.4846    72.1538    -1.9790    -1.4485    20.0000    20.0000    10.0000    20.0000    26.0000    10.0000    16.0000    20.0000    -0.0005     0.0005   159.4164   -41.1662     3.9048    29.7019    14.7000     2.0000     1.0000   300.0670     0.000
      2     2.5000     0.0500    -0.0001    14.7495     27.012     31.000 194311.000     30.000    47.1929   -20.0773   -28.7640   120.0962    -0.1480    -3.0001   -49.6254     0.0000   390.0000     0.0000     1.0000   300.0000   300.0000   -37.5619    72.4385    -1.9790    -1.4485    20.0000    20.0000    10.0000    20.0000    26.0000    10.0000    16.0000    20.0000    -0.0005     0.0005   159.4164   -41.1662     3.9047    29.4495    14.7000     2.0000     1.0000   300.0310     0.000
      3     2.5000     0.0500    -0.0001    14.4999     26.831     36.000 194311.000     30.000    47.3944   -20.0773   -28.8893   120.0962    -0.1480    -3.0001   -49.3982     0.0000   390.0000     0.0000     1.0000   300.0000   300.0000   -37.6389    72.7227    -1.9790    -1.4485    20.0000    20.0000    10.0000    20.0000    26.0000    10.0000    16.0000    20.0000    -0.0005     0.0005   159.4164   -41.1662     3.9047    29.1999    14.7000     2.0000     1.0000   300.0060     0.000
      4     2.5001     0.0500    -0.0001    14.2506     26.301     40.000 194311.000     30.000    47.5986   -20.0773   -29.0161   120.0962    -0.1480    -3.0001   -49.1702     0.0000   390.0000     0.0000     1.0000   300.0000   300.0000   -37.7145    73.0115    -1.9790    -1.4485    20.0000    20.0000    10.0000    20.0000    26.0000    10.0000    16.0000    20.0000    -0.0005     0.0005   159.4164   -41.1662     3.9049    28.9507    14.7000     2.0000     1.0000   300.0060     0.000
      5     2.5000     0.0500    -0.0001    13.9994     25.950     31.000 194311.000     30.000    47.8055   -20.0773   -29.1457   120.0962    -0.1480    -3.0001   -48.9414     0.0000   390.0000     0.0000     1.0000   300.0000   300.0000   -37.7896    73.2972    -1.9790    -1.4485    20.0000    20.0000    10.0000    20.0000    26.0000    10.0000    16.0000    20.0000    -0.0005     0.0005   159.4164   -41.1662     3.9047    28.6994    14.7000     2.0000     1.0000   299.9780     0.000
      6     2.5001     0.0500    -0.0001    13.7503     25.571     41.000 194311.000     30.000    48.0151   -20.0773   -29.2758   120.0962    -0.1480    -3.0001   -48.7117     0.0000   390.0000     0.0000     1.0000   300.0000   300.0000   -37.8644    73.5899    -1.9790    -1.4485    20.0000    20.0000    10.0000    20.0000    26.0000    10.0000    16.0000    20.0000    -0.0005     0.0005   159.4164   -41.1662     3.9048    28.4503    14.7000     2.0000     1.0000   299.9810     0.000
      7     2.5000     0.0500    -0.0001    13.5004     25.403     38.000 194311.000     30.000    48.2274   -20.0773   -29.4082   120.0962    -0.1480    -3.0001   -48.4811     0.0000   390.0000     0.0000     1.0000   300.0000   300.0000   -37.9381    73.8781    -1.9790    -1.4485    20.0000    20.0000    10.0000    20.0000    26.0000    10.0000    16.0000    20.0000    -0.0005     0.0005   159.4164   -41.1662     3.9047    28.2004    14.7000     2.0000     1.0000   299.9780     0.000
      8     2.5001     0.0500    -0.0001    13.2496     25.389     46.000 194311.000     30.000    48.4427   -20.0773   -29.5428   120.0962    -0.1480    -3.0001   -48.2497     0.0000   390.0000     0.0000     1.0000   300.0000   300.0000   -38.0111    74.1753    -1.9790    -1.4485    20.0000    20.0000    10.0000    20.0000    26.0000    10.0000    16.0000    20.0000    -0.0005     0.0005   159.4164   -41.1662     3.9048    27.9496    14.7000     2.0000     1.0000   299.9890     0.000
      9     2.5000     0.0500    -0.0001    13.0000     25.579     55.000 194311.000     30.000    48.6608   -20.0773   -29.6786   120.0962    -0.1480    -3.0001   -48.0174     0.0000   390.0000     0.0000     1.0000   300.0000   300.0000   -38.0832    74.4684    -1.9790    -1.4485    20.0000    20.0000    10.0000    20.0000    26.0000    10.0000    16.0000    20.0000    -0.0005     0.0005   159.4164   -41.1662     3.9047    27.7000    14.7000     2.0000     1.0000   299.9480     0.000
     10     2.5001     0.0500    -0.0001    12.7500     25.919     44.000 194311.000     30.000    48.8819   -20.0773   -29.8166   120.0962    -0.1480    -3.0001   -47.7842     0.0000   390.0000     0.0000     1.0000   300.0000   300.0000   -38.1550    74.7690    -1.9790    -1.4485    20.0000    20.0000    10.0000    20.0000    26.0000    10.0000    16.0000    20.0000    -0.0005     0.0005   159.4164   -41.1662     3.9049    27.4500    14.7000     2.0000     1.0000   300.0080     0.000
     11     2.5000     0.0500    -0.0001    12.4998     26.468     48.000 194311.000     30.000    49.1060   -20.0773   -29.9566   120.0962    -0.1480    -3.0001   -47.5501     0.0000   390.0000     0.0000     1.0000   300.0000   300.0000   -38.2254    75.0641    -1.9790    -1.4485    20.0000    20.0000    10.0000    20.0000    26.0000    10.0000    16.0000    20.0000    -0.0005     0.0005   159.4164   -41.1662     3.9047    27.1998    14.7000     2.0000     1.0000   299.9840     0.000
     12     2.5001     0.0500    -0.0001    12.2505     26.669     78.000 194311.000     30.000    49.3332   -20.0773   -30.0981   120.0962    -0.1480    -3.0001   -47.3151     0.0000   390.0000     0.0000     1.0000   300.0000   300.0000   -38.2954    75.3678    -1.9790    -1.4485    20.0000    20.0000    10.0000    20.0000    26.0000    10.0000    16.0000    20.0000    -0.0005     0.0005   159.4164   -41.1662     3.9048    26.9505    14.7000     2.0000     1.0000   299.9960     0.000
     13     2.4999     0.0500    -0.0001    11.9996     26.883     54.000 194311.000     30.000    49.5636   -20.0773   -30.2426   120.0962    -0.1480    -3.0001   -47.0791     0.0000   390.0000     0.0000     1.0000   300.0000   300.0000   -38.3642    75.6684    -1.9790    -1.4485    20.0000    20.0000    10.0000    20.0000    26.0000    10.0000    16.0000    20.0000    -0.0005     0.0005   159.4164   -41.1662     3.9046    26.6996    14.7000     2.0000     1.0000   300.0040     0.000
     14     2.5001     0.0500    -0.0001    11.7500     26.884     55.000 194311.000     30.000    49.7973   -20.0773   -30.3884   120.0962    -0.1480    -3.0001   -46.8422     0.0000   390.0000     0.0000     1.0000   300.0000   300.0000   -38.4323    75.9781    -1.9790    -1.4485    20.0000    20.0000    10.0000    20.0000    26.0000    10.0000    16.0000    20.0000    -0.0005     0.0005   159.4164   -41.1662     3.9048    26.4500    14.7000     2.0000     1.0000   299.9290     0.000
     15     2.5000     0.0500    -0.0001    11.5002     26.814     48.000 194311.000     30.000    50.0343   -20.0773   -30.5364   120.0962    -0.1480    -3.0001   -46.6044     0.0000   390.0000     0.0000     1.0000   300.0000   300.0000   -38.4996    76.2830    -1.9790    -1.4485    20.0000    20.0000    10.0000    20.0000    26.0000    10.0000    16.0000    20.0000    -0.0005     0.0005   159.4164   -41.1662     3.9047    26.2002    14.7000     2.0000     1.0000   299.9990     0.000
     16     2.5001     0.0500    -0.0001    11.2501     26.533     56.000 194311.000     30.000    50.2748   -20.0773   -30.6868   120.0962    -0.1480    -3.0001   -46.3655     0.0000   390.0000     0.0000     1.0000   300.0000   300.0000   -38.5658    76.5954    -1.9790    -1.4485    20.0000    20.0000    10.0000    20.0000    26.0000    10.0000    16.0000    20.0000    -0.0005     0.0005   159.4164   -41.1662     3.9048    25.9501    14.7000     2.0000     1.0000   300.0160     0.000
     17     2.5000     0.0500    -0.0001    11.0000     26.483     49.000 194311.000     30.000    50.5187   -20.0773   -30.8395   120.0962    -0.1480    -3.0001   -46.1257     0.0000   390.0000     0.0000     1.0000   300.0000   300.0000   -38.6311    76.9070    -1.9790    -1.4485    20.0000    20.0000    10.0000    20.0000    26.0000    10.0000    16.0000    20.0000    -0.0005     0.0005   159.4164   -41.1662     3.9048    25.7000    14.7000     2.0000     1.0000   300.0150     0.000
     18     2.5000     0.0500    -0.0001    10.7500     26.220     38.000 194311.000     30.000    50.7662   -20.0773   -30.9943   120.0962    -0.1480    -3.0001   -45.8849     0.0000   390.0000     0.0000     1.0000   300.0000   300.0000   -38.6954    77.2208    -1.9790    -1.4485    20.0000    20.0000    10.0000    20.0000    26.0000    10.0000    16.0000    20.0000    -0.0005     0.0005   159.4164   -41.1662     3.9047    25.4501    14.7000     2.0000     1.0000   300.0040     0.000
     19     2.5000     0.0500    -0.0001    10.5001     26.262     41.000 194311.000     30.000    51.0174   -20.0773   -31.1515   120.0962    -0.1480    -3.0001   -45.6430     0.0000   390.0000     0.0000     1.0000   300.0000   300.0000   -38.7589    77.5381    -1.9790    -1.4485    20.0000    20.0000    10.0000    20.0000    26.0000    10.0000    16.0000    20.0000    -0.0005     0.0005   159.4164   -41.1662     3.9047    25.2001    14.7000     2.0000     1.0000   299.9600     0.000
     20     2.5000     0.0500    -0.0001    10.2503     26.205     39.000 194311.000     30.000    51.2724   -20.0773   -31.3110   120.0962    -0.1480    -3.0001   -45.4002     0.0000   390.0000     0.0000     1.0000   300.0000   300.0000   -38.8209    77.8558    -1.9790    -1.4485    20.0000    20.0000    10.0000    20.0000    26.0000    10.0000    16.0000    20.0000    -0.0005     0.0005   159.4164   -41.1662     3.9047    24.9504    14.7000     2.0000     1.0000   299.9930     0.000
     21     2.5001     0.0500    -0.0001     9.9998     26.605     41.000 194311.000     30.000    51.5312   -20.0773   -31.4735   120.0962    -0.1480    -3.0001   -45.1562     0.0000   390.0000     0.0000     1.0000   300.0000   300.0000   -38.8821    78.1832    -1.9790    -1.4485    20.0000    20.0000    10.0000    20.0000    26.0000    10.0000    16.0000    20.0000    -0.0005     0.0005   159.4164   -41.1662     3.9049    24.6998    14.7000     2.0000     1.0000   299.9910     0.000
     22     2.5000     0.0500    -0.0001     9.7499     26.839     38.000 194311.000     30.000    51.7940   -20.0773   -31.6382   120.0962    -0.1480    -3.0001   -44.9112     0.0000   390.0000     0.0000     1.0000   300.0000   300.0000   -38.9424    78.5040    -1.9790    -1.4485    20.0000    20.0000    10.0000    20.0000    26.0000    10.0000    16.0000    20.0000    -0.0005     0.0005   159.4164   -41.1662     3.9047    24.4499    14.7000     2.0000     1.0000   300.0000     0.000
     23     2.5000     0.0500    -0.0001     9.4998     27.266     35.000 194311.000     30.000    52.0609   -20.0773   -31.8055   120.0962    -0.1480    -3.0001   -44.6652     0.0000   390.0000     0.0000     1.0000   300.0000   300.0000   -39.0014    78.8302    -1.9790    -1.4485    20.0000    20.0000    10.0000    20.0000    26.0000    10.0000    16.0000    20.0000    -0.0005     0.0005   159.4164   -41.1662     3.9047    24.1998    14.7000     2.0000     1.0000   300.0140     0.000
     24     2.5001     0.0499    -0.0001     9.2503     27.486     29.000 194311.000     30.000    52.3319   -20.0773   -31.9752   120.0962    -0.1480    -3.0001   -44.4180     0.0000   390.0000     0.0000     1.0000   300.0000   300.0000   -39.0594    79.1649    -1.9790    -1.4485    20.0000    20.0000    10.0000    20.0000    26.0000    10.0000    16.0000    20.0000    -0.0005     0.0005   159.4164   -41.1662     3.9049    23.9503    14.7000     2.0000     1.0000   299.9760     0.000
     25     2.5000     0.0500    -0.0001     9.0000     27.381     38.000 194311.000     30.000    52.6071   -20.0773   -32.1481   120.0962    -0.1480    -3.0001   -44.1697     0.0000   390.0000     0.0000     1.0000   300.0000   300.0000   -39.1157    79.4928    -1.9790    -1.4485    20.0000    20.0000    10.0000    20.0000    26.0000    10.0000    16.0000    20.0000    -0.0005     0.0005   159.4164   -41.1662     3.9047    23.7000    14.7000     2.0000     1.0000   299.9980     0.000
     26     2.5000     0.0500    -0.0001     8.7500     26.783     22.000 194311.000     30.000    52.8868   -20.0773   -32.3237   120.0962    -0.1480    -3.0001   -43.9203     0.0000   390.0000     0.0000     1.0000   300.0000   300.0000   -39.1713    79.8300    -1.9790    -1.4485    20.0000    20.0000    10.0000    20.0000    26.0000    10.0000    16.0000    20.0000    -0.0005     0.0005   159.4164   -41.1662     3.9047    23.4500    14.7000     2.0000     1.0000   300.0110     0.000
     27     2.5001     0.0499    -0.0001     8.5001     25.907     34.000 194311.000     30.000    53.1710   -20.0773   -32.5021   120.0962    -0.1480    -3.0001   -43.6697     0.0000   390.0000     0.0000     1.0000   300.0000   300.0000   -39.2255    80.1720    -1.9790    -1.4485    20.0000    20.0000    10.0000    20.0000    26.0000    10.0000    16.0000    20.0000    -0.0005     0.0005   159.4164   -41.1662     3.9049    23.2001    14.7000     2.0000     1.0000   300.0030     0.000
     28     2.5000     0.0500    -0.0001     8.2498     25.156     27.000 194311.000     30.000    53.4598   -20.0773   -32.6838   120.0962    -0.1480    -3.0001   -43.4180     0.0000   390.0000     0.0000     1.0000   300.0000   300.0000   -39.2785    80.5103    -1.9790    -1.4485    20.0000    20.0000    10.0000    20.0000    26.0000    10.0000    16.0000    20.0000    -0.0005     0.0005   159.4164   -41.1662     3.9047    22.9498    14.7000     2.0000     1.0000   300.0070     0.000
     29     2.5000     0.0500    -0.0001     7.9999     24.538     20.000 194311.000     30.000    53.7534   -20.0773   -32.8683   120.0962    -0.1480    -3.0001   -43.1651     0.0000   390.0000     0.0000     1.0000   300.0000   300.0000   -39.3296    80.8542    -1.9790    -1.4485    20.0000    20.0000    10.0000    20.0000    26.0000    10.0000    16.0000    20.0000    -0.0005     0.0005   159.4164   -41.1662     3.9047    22.6999    14.7000     2.0000     1.0000   299.9670     0.000
     30     2.5001     0.0500    -0.0001     7.7500     24.105     28.000 194311.000     30.000    54.0519   -20.0773   -33.0559   120.0962    -0.1480    -3.0001   -42.9109     0.0000   390.0000     0.0000     1.0000   300.0000   300.0000   -39.3798    81.2056    -1.9790    -1.4485    20.0000    20.0000    10.0000    20.0000    26.0000    10.0000    16.0000    20.0000    -0.0005     0.0005   159.4164   -41.1662     3.9048    22.4500    14.7000     2.0000     1.0000   299.9900     0.000
     31     2.5000     0.0500    -0.0001     7.4999     23.917     25.000 194311.000     30.000    54.3554   -20.0773   -33.2470   120.0962    -0.1480    -3.0001   -42.6556     0.0000   390.0000     0.0000     1.0000   300.0000   300.0000   -39.4288    81.5537    -1.9790    -1.4485    20.0000    20.0000    10.0000    20.0000    26.0000    10.0000    16.0000    20.0000    -0.0005     0.0005   159.4164   -41.1662     3.9047    22.1999    14.7000     2.0000     1.0000   299.9950     0.000
     32     2.5000     0.0500    -0.0001     7.2503     23.954     18.000 194311.000     30.000    54.6640   -20.0773   -33.4411   120.0962    -0.1480    -3.0001   -42.3989     0.0000   390.0000     0.0000     1.0000   300.0000   300.0000   -39.4756    81.9092    -1.9790    -1.4485    20.0000    20.0000    10.0000    20.0000    26.0000    10.0000    16.0000    20.0000    -0.0005     0.0005   159.4164   -41.1662     3.9048    21.9503    14.7000     2.0000     1.0000   299.9730     0.000
     33     2.5000     0.0500    -0.0001     6.9997     23.866     23.000 194311.000     30.000    54.9780   -20.0773   -33.6393   120.0962    -0.1480    -3.0001   -42.1410     0.0000   390.0000     0.0000     1.0000   300.0000   300.0000   -39.5211    82.2651    -1.9790    -1.4485    20.0000    20.0000    10.0000    20.0000    26.0000    10.0000    16.0000    20.0000    -0.0005     0.0005   159.4164   -41.1662     3.9046    21.6997    14.7000     2.0000     1.0000   300.0080     0.000
     34     2.5000     0.0500    -0.0001     6.7502     23.910     31.000 194311.000     30.000    55.2975   -20.0773   -33.8402   120.0962    -0.1480    -3.0001   -41.8818     0.0000   390.0000     0.0000     1.0000   300.0000   300.0000   -39.5652    82.6273    -1.9790    -1.4485    20.0000    20.0000    10.0000    20.0000    26.0000    10.0000    16.0000    20.0000    -0.0005     0.0005   159.4164   -41.1662     3.9047    21.4502    14.7000     2.0000     1.0000   299.9950     0.000
     35     2.5001     0.0500    -0.0001     6.4999     24.108     23.000 194311.000     30.000    55.6225   -20.0773   -34.0454   120.0962    -0.1480    -3.0001   -41.6214     0.0000   390.0000     0.0000     1.0000   300.0000   300.0000   -39.6076    82.9962    -1.9790    -1.4485    20.0000    20.0000    10.0000    20.0000    26.0000    10.0000    16.0000    20.0000    -0.0005     0.0005   159.4164   -41.1662     3.9048    21.1999    14.7000     2.0000     1.0000   300.0080     0.000
     36     2.5001     0.0500    -0.0001     6.2501     24.454     32.000 194311.000     30.000    55.9535   -20.0773   -34.2541   120.0962    -0.1480    -3.0001   -41.3595     0.0000   390.0000     0.0000     1.0000   300.0000   300.0000   -39.6486    83.3645    -1.9790    -1.4485    20.0000    20.0000    10.0000    20.0000    26.0000    10.0000    16.0000    20.0000    -0.0005     0.0005   159.4164   -41.1662     3.9048    20.9501    14.7000     2.0000     1.0000   300.0140     0.000
     37     2.5000     0.0500    -0.0001     6.0000     24.737     20.000 194311.000     30.000    56.2903   -20.0773   -34.4667   120.0962    -0.1480    -3.0001   -41.0963     0.0000   390.0000     0.0000     1.0000   300.0000   300.0000   -39.6870    83.7361    -1.9790    -1.4485    20.0000    20.0000    10.0000    20.0000    26.0000    10.0000    16.0000    20.0000    -0.0005     0.0005   159.4164   -41.1662     3.9047    20.7001    14.7000     2.0000     1.0000   300.0070     0.000
