# scan = 42
# date = 9/5/2024
# time = 2:22:43 AM
# proposal = 32905
# experiment = Effects of electric field on phonon dispersion and lifetimes of poled PMN-30PT
# experiment_number = 812
# command = scan h 2.5 k 0.55 l 0 e 15 0 0.25 preset mcu 30
# builtin_command = scan h 2.5 k 0.55 l 0 e 15 0 0.25 preset mcu 30
# users = George Yumnam, Michael Manley, Puspa Upreti, Raphael Hermann, SHAOFEI WANG
# local_contact = Songxue Chi
# scan_title = h2.5 k0.55 l0 scans
# monochromator = PG002
# analyzer = Pg002
# sense = -+-
# collimation = 48-40-40-120
# samplename = PMN-30PT
# sampletype = crystal
# samplemosaic = 30.000000
# latticeconstants = 4.023634,4.023634,4.023634,90.000000,90.000000,90.000000
# ubmatrix = -0.008055,-0.248252,-0.008588,-0.248328,0.007840,0.006285,-0.006007,0.008785,-0.248304
# mode = 0
# plane_normal = 0.034555,-0.025290,0.999083
# ubconf = UB04Sep2024_115522AM.ini
# preset_type = normal 
# preset_channel = mcu
# preset_value = 30.000000
# def_x = e
# def_y = detector
# col_headers = 
#   Pt.          h          k          l          e       time   detector    monitor        mcu focal_length         m1         m2   mcrystal       marc     mtrans     mfocus       ampl         dc       freq     output       temp     temp_2         s1         s2        sgl        sgu        bbb        bbl        bbr        bbt        bab        bal        bar        bat        stl        stu         a1         a2          q         ei         ef   ampl_out output_state        vti     sample
      1     2.5000     0.5500    -0.0001    15.0017     27.743     34.000 194311.000     30.000    46.9938   -20.0773   -28.6390   120.0962    -0.1480    -3.0001   -49.8518     0.0000     0.0000     0.0000     1.0000   300.0000   300.0000   -25.6406    74.3241    -1.9790    -1.4485    20.0000    20.0000    10.0000    20.0000    26.0000    10.0000    16.0000    20.0000    -0.0005     0.0005   159.4164   -41.1662     3.9973    29.7017    14.7000     2.0000     1.0000   300.0430     0.000
      2     2.5000     0.5500    -0.0001    14.7495     27.338     27.000 194311.000     30.000    47.1929   -20.0773   -28.7640   120.0962    -0.1480    -3.0001   -49.6254     0.0000     0.0000     0.0000     1.0000   300.0000   300.0000   -25.7082    74.6159    -1.9790    -1.4485    20.0000    20.0000    10.0000    20.0000    26.0000    10.0000    16.0000    20.0000    -0.0005     0.0005   159.4164   -41.1662     3.9973    29.4495    14.7000     2.0000     1.0000   300.0100     0.000
      3     2.5000     0.5500    -0.0001    14.4999     26.955     37.000 194311.000     30.000    47.3944   -20.0773   -28.8893   120.0962    -0.1480    -3.0001   -49.3982     0.0000     0.0000     0.0000     1.0000   300.0000   300.0000   -25.7750    74.9050    -1.9790    -1.4485    20.0000    20.0000    10.0000    20.0000    26.0000    10.0000    16.0000    20.0000    -0.0005     0.0005   159.4164   -41.1662     3.9973    29.1999    14.7000     2.0000     1.0000   300.0200     0.000
      4     2.5001     0.5500    -0.0001    14.2506     26.621     34.000 194311.000     30.000    47.5986   -20.0773   -29.0161   120.0962    -0.1480    -3.0001   -49.1702     0.0000     0.0000     0.0000     1.0000   300.0000   300.0000   -25.8406    75.1997    -1.9790    -1.4485    20.0000    20.0000    10.0000    20.0000    26.0000    10.0000    16.0000    20.0000    -0.0005     0.0005   159.4164   -41.1662     3.9974    28.9507    14.7000     2.0000     1.0000   299.9180     0.000
      5     2.5000     0.5500    -0.0001    13.9994     26.210     32.000 194311.000     30.000    47.8055   -20.0773   -29.1457   120.0962    -0.1480    -3.0001   -48.9414     0.0000     0.0000     0.0000     1.0000   300.0000   300.0000   -25.9056    75.4922    -1.9790    -1.4485    20.0000    20.0000    10.0000    20.0000    26.0000    10.0000    16.0000    20.0000    -0.0005     0.0005   159.4164   -41.1662     3.9973    28.6994    14.7000     2.0000     1.0000   300.0040     0.000
      6     2.5001     0.5500    -0.0001    13.7504     25.858     40.000 194311.000     30.000    48.0151   -20.0773   -29.2758   120.0962    -0.1480    -3.0001   -48.7117     0.0000     0.0000     0.0000     1.0000   300.0000   300.0000   -25.9696    75.7911    -1.9790    -1.4485    20.0000    20.0000    10.0000    20.0000    26.0000    10.0000    16.0000    20.0000    -0.0005     0.0005   159.4164   -41.1662     3.9974    28.4504    14.7000     2.0000     1.0000   299.9420     0.000
      7     2.5000     0.5500    -0.0001    13.5003     25.649     31.000 194311.000     30.000    48.2274   -20.0773   -29.4082   120.0962    -0.1480    -3.0001   -48.4811     0.0000     0.0000     0.0000     1.0000   300.0000   300.0000   -26.0334    76.0867    -1.9790    -1.4485    20.0000    20.0000    10.0000    20.0000    26.0000    10.0000    16.0000    20.0000    -0.0005     0.0005   159.4164   -41.1662     3.9973    28.2003    14.7000     2.0000     1.0000   299.9940     0.000
      8     2.5000     0.5500    -0.0001    13.2496     25.740     31.000 194311.000     30.000    48.4427   -20.0773   -29.5428   120.0962    -0.1480    -3.0001   -48.2497     0.0000     0.0000     0.0000     1.0000   300.0000   300.0000   -26.0955    76.3891    -1.9790    -1.4485    20.0000    20.0000    10.0000    20.0000    26.0000    10.0000    16.0000    20.0000    -0.0005     0.0005   159.4164   -41.1662     3.9973    27.9496    14.7000     2.0000     1.0000   299.9300     0.000
      9     2.5000     0.5500    -0.0001    13.0000     25.968     36.000 194311.000     30.000    48.6608   -20.0773   -29.6786   120.0962    -0.1480    -3.0001   -48.0174     0.0000     0.0000     0.0000     1.0000   300.0000   300.0000   -26.1571    76.6897    -1.9790    -1.4485    20.0000    20.0000    10.0000    20.0000    26.0000    10.0000    16.0000    20.0000    -0.0005     0.0005   159.4164   -41.1662     3.9973    27.7000    14.7000     2.0000     1.0000   300.0180     0.000
     10     2.5001     0.5500    -0.0001    12.7500     26.294     32.000 194311.000     30.000    48.8819   -20.0773   -29.8166   120.0962    -0.1480    -3.0001   -47.7842     0.0000     0.0000     0.0000     1.0000   300.0000   300.0000   -26.2180    76.9977    -1.9790    -1.4485    20.0000    20.0000    10.0000    20.0000    26.0000    10.0000    16.0000    20.0000    -0.0005     0.0005   159.4164   -41.1662     3.9974    27.4500    14.7000     2.0000     1.0000   299.9380     0.000
     11     2.5000     0.5500    -0.0001    12.4999     26.696     32.000 194311.000     30.000    49.1060   -20.0773   -29.9566   120.0962    -0.1480    -3.0001   -47.5501     0.0000     0.0000     0.0000     1.0000   300.0000   300.0000   -26.2776    77.3013    -1.9790    -1.4485    20.0000    20.0000    10.0000    20.0000    26.0000    10.0000    16.0000    20.0000    -0.0005     0.0005   159.4164   -41.1662     3.9973    27.1999    14.7000     2.0000     1.0000   300.0020     0.000
     12     2.5001     0.5500    -0.0001    12.2504     26.930     34.000 194311.000     30.000    49.3332   -20.0773   -30.0982   120.0962    -0.1480    -3.0001   -47.3151     0.0000     0.0000     0.0000     1.0000   300.0000   300.0000   -26.3366    77.6129    -1.9790    -1.4485    20.0000    20.0000    10.0000    20.0000    26.0000    10.0000    16.0000    20.0000    -0.0005     0.0005   159.4164   -41.1662     3.9974    26.9504    14.7000     2.0000     1.0000   300.0150     0.000
     13     2.5000     0.5500    -0.0001    11.9997     27.119     38.000 194311.000     30.000    49.5636   -20.0773   -30.2425   120.0962    -0.1480    -3.0001   -47.0791     0.0000     0.0000     0.0000     1.0000   300.0000   300.0000   -26.3946    77.9225    -1.9790    -1.4485    20.0000    20.0000    10.0000    20.0000    26.0000    10.0000    16.0000    20.0000    -0.0005     0.0005   159.4164   -41.1662     3.9973    26.6997    14.7000     2.0000     1.0000   300.0120     0.000
     14     2.5000     0.5500    -0.0001    11.7500     27.256     34.000 194311.000     30.000    49.7973   -20.0773   -30.3884   120.0962    -0.1480    -3.0001   -46.8422     0.0000     0.0000     0.0000     1.0000   300.0000   300.0000   -26.4514    78.2349    -1.9790    -1.4485    20.0000    20.0000    10.0000    20.0000    26.0000    10.0000    16.0000    20.0000    -0.0005     0.0005   159.4164   -41.1662     3.9973    26.4500    14.7000     2.0000     1.0000   300.0210     0.000
     15     2.5000     0.5500    -0.0001    11.5002     27.175     43.000 194311.000     30.000    50.0343   -20.0773   -30.5364   120.0962    -0.1480    -3.0001   -46.6044     0.0000     0.0000     0.0000     1.0000   300.0000   300.0000   -26.5071    78.5517    -1.9790    -1.4485    20.0000    20.0000    10.0000    20.0000    26.0000    10.0000    16.0000    20.0000    -0.0005     0.0005   159.4164   -41.1662     3.9973    26.2002    14.7000     2.0000     1.0000   299.9990     0.000
     16     2.5000     0.5500    -0.0001    11.2501     26.912     41.000 194311.000     30.000    50.2748   -20.0773   -30.6868   120.0962    -0.1480    -3.0001   -46.3655     0.0000     0.0000     0.0000     1.0000   300.0000   300.0000   -26.5621    78.8678    -1.9790    -1.4485    20.0000    20.0000    10.0000    20.0000    26.0000    10.0000    16.0000    20.0000    -0.0005     0.0005   159.4164   -41.1662     3.9972    25.9501    14.7000     2.0000     1.0000   300.0120     0.000
     17     2.5001     0.5500    -0.0001    11.0000     26.637     47.000 194311.000     30.000    50.5187   -20.0773   -30.8395   120.0962    -0.1480    -3.0001   -46.1257     0.0000     0.0000     0.0000     1.0000   300.0000   300.0000   -26.6160    79.1932    -1.9790    -1.4485    20.0000    20.0000    10.0000    20.0000    26.0000    10.0000    16.0000    20.0000    -0.0005     0.0005   159.4164   -41.1662     3.9974    25.7000    14.7000     2.0000     1.0000   300.0020     0.000
     18     2.5000     0.5500    -0.0001    10.7501     26.641     59.000 194311.000     30.000    50.7662   -20.0773   -30.9943   120.0962    -0.1480    -3.0001   -45.8849     0.0000     0.0000     0.0000     1.0000   300.0000   300.0000   -26.6684    79.5135    -1.9790    -1.4485    20.0000    20.0000    10.0000    20.0000    26.0000    10.0000    16.0000    20.0000    -0.0005     0.0005   159.4164   -41.1662     3.9973    25.4501    14.7000     2.0000     1.0000   300.0050     0.000
     19     2.5000     0.5500    -0.0001    10.5002     26.533     55.000 194311.000     30.000    51.0174   -20.0773   -31.1515   120.0962    -0.1480    -3.0001   -45.6430     0.0000     0.0000     0.0000     1.0000   300.0000   300.0000   -26.7199    79.8371    -1.9790    -1.4485    20.0000    20.0000    10.0000    20.0000    26.0000    10.0000    16.0000    20.0000    -0.0005     0.0005   159.4164   -41.1662     3.9972    25.2002    14.7000     2.0000     1.0000   299.9980     0.000
     20     2.5001     0.5500    -0.0001    10.2503     26.595     67.000 194311.000     30.000    51.2724   -20.0773   -31.3111   120.0962    -0.1480    -3.0001   -45.4002     0.0000     0.0000     0.0000     1.0000   300.0000   300.0000   -26.7706    80.1690    -1.9790    -1.4485    20.0000    20.0000    10.0000    20.0000    26.0000    10.0000    16.0000    20.0000    -0.0005     0.0005   159.4164   -41.1662     3.9974    24.9503    14.7000     2.0000     1.0000   300.0150     0.000
     21     2.5000     0.5500    -0.0001     9.9999     26.799     52.000 194311.000     30.000    51.5312   -20.0773   -31.4735   120.0962    -0.1480    -3.0001   -45.1562     0.0000     0.0000     0.0000     1.0000   300.0000   300.0000   -26.8195    80.4981    -1.9790    -1.4485    20.0000    20.0000    10.0000    20.0000    26.0000    10.0000    16.0000    20.0000    -0.0005     0.0005   159.4164   -41.1662     3.9973    24.6999    14.7000     2.0000     1.0000   300.0060     0.000
     22     2.5000     0.5500    -0.0001     9.7498     27.191     86.000 194311.000     30.000    51.7940   -20.0773   -31.6382   120.0962    -0.1480    -3.0001   -44.9112     0.0000     0.0000     0.0000     1.0000   300.0000   300.0000   -26.8671    80.8326    -1.9790    -1.4485    20.0000    20.0000    10.0000    20.0000    26.0000    10.0000    16.0000    20.0000    -0.0005     0.0005   159.4164   -41.1662     3.9973    24.4498    14.7000     2.0000     1.0000   300.0180     0.000
     23     2.5000     0.5500    -0.0001     9.4999     27.581     77.000 194311.000     30.000    52.0609   -20.0773   -31.8055   120.0962    -0.1480    -3.0001   -44.6652     0.0000     0.0000     0.0000     1.0000   300.0000   300.0000   -26.9145    81.1704    -1.9790    -1.4485    20.0000    20.0000    10.0000    20.0000    26.0000    10.0000    16.0000    20.0000    -0.0005     0.0005   159.4164   -41.1662     3.9973    24.1999    14.7000     2.0000     1.0000   299.9260     0.000
     24     2.5000     0.5500    -0.0001     9.2502     27.865     77.000 194311.000     30.000    52.3319   -20.0773   -31.9752   120.0962    -0.1480    -3.0001   -44.4180     0.0000     0.0000     0.0000     1.0000   300.0000   300.0000   -26.9593    81.5092    -1.9790    -1.4485    20.0000    20.0000    10.0000    20.0000    26.0000    10.0000    16.0000    20.0000    -0.0005     0.0005   159.4164   -41.1662     3.9973    23.9503    14.7000     2.0000     1.0000   300.0060     0.000
     25     2.4999     0.5500    -0.0001     8.9999     27.600     49.000 194311.000     30.000    52.6071   -20.0773   -32.1482   120.0962    -0.1480    -3.0001   -44.1697     0.0000     0.0000     0.0000     1.0000   300.0000   300.0000   -27.0031    81.8499    -1.9790    -1.4485    20.0000    20.0000    10.0000    20.0000    26.0000    10.0000    16.0000    20.0000    -0.0005     0.0005   159.4164   -41.1662     3.9972    23.6999    14.7000     2.0000     1.0000   299.9320     0.000
     26     2.5000     0.5500    -0.0001     8.7500     27.036     86.000 194311.000     30.000    52.8868   -20.0773   -32.3237   120.0962    -0.1480    -3.0001   -43.9203     0.0000     0.0000     0.0000     1.0000   300.0000   300.0000   -27.0458    82.1985    -1.9790    -1.4485    20.0000    20.0000    10.0000    20.0000    26.0000    10.0000    16.0000    20.0000    -0.0005     0.0005   159.4164   -41.1662     3.9973    23.4500    14.7000     2.0000     1.0000   300.0120     0.000
     27     2.5000     0.5500    -0.0001     8.5001     26.293     71.000 194311.000     30.000    53.1710   -20.0773   -32.5021   120.0962    -0.1480    -3.0001   -43.6697     0.0000     0.0000     0.0000     1.0000   300.0000   300.0000   -27.0870    82.5472    -1.9790    -1.4485    20.0000    20.0000    10.0000    20.0000    26.0000    10.0000    16.0000    20.0000    -0.0005     0.0005   159.4164   -41.1662     3.9973    23.2001    14.7000     2.0000     1.0000   300.0020     0.000
     28     2.5000     0.5500    -0.0001     8.2499     25.445     53.000 194311.000     30.000    53.4598   -20.0773   -32.6837   120.0962    -0.1480    -3.0001   -43.4180     0.0000     0.0000     0.0000     1.0000   300.0000   300.0000   -27.1268    82.8991    -1.9790    -1.4485    20.0000    20.0000    10.0000    20.0000    26.0000    10.0000    16.0000    20.0000    -0.0005     0.0005   159.4164   -41.1662     3.9973    22.9499    14.7000     2.0000     1.0000   300.0020     0.000
     29     2.5000     0.5500    -0.0001     8.0000     24.768     74.000 194311.000     30.000    53.7534   -20.0773   -32.8682   120.0962    -0.1480    -3.0001   -43.1651     0.0000     0.0000     0.0000     1.0000   300.0000   300.0000   -27.1648    83.2535    -1.9790    -1.4485    20.0000    20.0000    10.0000    20.0000    26.0000    10.0000    16.0000    20.0000    -0.0005     0.0005   159.4164   -41.1662     3.9972    22.7000    14.7000     2.0000     1.0000   300.0290     0.000
     30     2.5000     0.5500    -0.0001     7.7501     24.298     76.000 194311.000     30.000    54.0519   -20.0773   -33.0559   120.0962    -0.1480    -3.0001   -42.9109     0.0000     0.0000     0.0000     1.0000   300.0000   300.0000   -27.2013    83.6149    -1.9790    -1.4485    20.0000    20.0000    10.0000    20.0000    26.0000    10.0000    16.0000    20.0000    -0.0005     0.0005   159.4164   -41.1662     3.9973    22.4501    14.7000     2.0000     1.0000   300.0110     0.000
     31     2.5001     0.5500    -0.0001     7.5000     24.190     79.000 194311.000     30.000    54.3554   -20.0773   -33.2470   120.0962    -0.1480    -3.0001   -42.6556     0.0000     0.0000     0.0000     1.0000   300.0000   300.0000   -27.2361    83.9802    -1.9790    -1.4485    20.0000    20.0000    10.0000    20.0000    26.0000    10.0000    16.0000    20.0000    -0.0005     0.0005   159.4164   -41.1662     3.9974    22.2000    14.7000     2.0000     1.0000   300.0150     0.000
     32     2.5000     0.5500    -0.0001     7.2503     24.092     65.000 194311.000     30.000    54.6640   -20.0773   -33.4411   120.0962    -0.1480    -3.0001   -42.3989     0.0000     0.0000     0.0000     1.0000   300.0000   300.0000   -27.2695    84.3442    -1.9790    -1.4485    20.0000    20.0000    10.0000    20.0000    26.0000    10.0000    16.0000    20.0000    -0.0005     0.0005   159.4164   -41.1662     3.9973    21.9503    14.7000     2.0000     1.0000   300.0040     0.000
     33     2.5000     0.5500    -0.0001     6.9996     24.138     63.000 194311.000     30.000    54.9780   -20.0773   -33.6393   120.0962    -0.1480    -3.0001   -42.1410     0.0000     0.0000     0.0000     1.0000   300.0000   300.0000   -27.3006    84.7141    -1.9790    -1.4485    20.0000    20.0000    10.0000    20.0000    26.0000    10.0000    16.0000    20.0000    -0.0005     0.0005   159.4164   -41.1662     3.9973    21.6996    14.7000     2.0000     1.0000   300.0040     0.000
     34     2.5000     0.5500    -0.0001     6.7501     24.297     72.000 194311.000     30.000    55.2975   -20.0773   -33.8403   120.0962    -0.1480    -3.0001   -41.8818     0.0000     0.0000     0.0000     1.0000   300.0000   300.0000   -27.3302    85.0871    -1.9790    -1.4485    20.0000    20.0000    10.0000    20.0000    26.0000    10.0000    16.0000    20.0000    -0.0005     0.0005   159.4164   -41.1662     3.9973    21.4501    14.7000     2.0000     1.0000   300.0110     0.000
     35     2.5000     0.5500    -0.0001     6.4999     24.424     67.000 194311.000     30.000    55.6225   -20.0773   -34.0455   120.0962    -0.1480    -3.0001   -41.6214     0.0000     0.0000     0.0000     1.0000   300.0000   300.0000   -27.3583    85.4653    -1.9790    -1.4485    20.0000    20.0000    10.0000    20.0000    26.0000    10.0000    16.0000    20.0000    -0.0005     0.0005   159.4164   -41.1662     3.9973    21.1999    14.7000     2.0000     1.0000   299.9990     0.000
     36     2.5000     0.5500    -0.0001     6.2501     24.750     83.000 194311.000     30.000    55.9535   -20.0773   -34.2541   120.0962    -0.1480    -3.0001   -41.3595     0.0000     0.0000     0.0000     1.0000   300.0000   300.0000   -27.3840    85.8468    -1.9790    -1.4485    20.0000    20.0000    10.0000    20.0000    26.0000    10.0000    16.0000    20.0000    -0.0005     0.0005   159.4164   -41.1662     3.9972    20.9501    14.7000     2.0000     1.0000   300.0040     0.000
     37     2.5000     0.5500    -0.0001     6.0001     24.960     64.000 194311.000     30.000    56.2903   -20.0773   -34.4667   120.0962    -0.1480    -3.0001   -41.0963     0.0000     0.0000     0.0000     1.0000   300.0000   300.0000   -27.4075    86.2336    -1.9790    -1.4485    20.0000    20.0000    10.0000    20.0000    26.0000    10.0000    16.0000    20.0000    -0.0005     0.0005   159.4164   -41.1662     3.9972    20.7001    14.7000     2.0000     1.0000   299.9950     0.000
