# scan = 80
# date = 9/5/2024
# time = 11:44:17 PM
# proposal = 32905
# experiment = Effects of electric field on phonon dispersion and lifetimes of poled PMN-30PT
# experiment_number = 812
# command = scan h 2 k -0.4 l 0 e 20 0 0.25 preset mcu 30
# builtin_command = scan h 2 k -0.4 l 0 e 20 0 0.25 preset mcu 30
# users = George Yumnam, Michael Manley, Puspa Upreti, Raphael Hermann, SHAOFEI WANG
# local_contact = Songxue Chi
# scan_title = (2,-0.4,0) G to X transverse mode scan at E 240 V
# monochromator = PG002
# analyzer = Pg002
# sense = -+-
# collimation = 48-40-40-120
# samplename = PMN-30PT
# sampletype = crystal
# samplemosaic = 30.000000
# latticeconstants = 4.023634,4.023634,4.023634,90.000000,90.000000,90.000000
# ubmatrix = -0.008055,-0.248252,-0.008588,-0.248328,0.007840,0.006285,-0.006007,0.008785,-0.248304
# mode = 0
# plane_normal = 0.034555,-0.025290,0.999083
# ubconf = UB04Sep2024_115522AM.ini
# preset_type = normal 
# preset_channel = mcu
# preset_value = 30.000000
# def_x = e
# def_y = detector
# col_headers = 
#   Pt.          h          k          l          e       time   detector    monitor        mcu focal_length         m1         m2   mcrystal       marc     mtrans     mfocus       ampl         dc       freq     output       temp     temp_2         s1         s2        sgl        sgu        bbb        bbl        bbr        bbt        bab        bal        bar        bat        stl        stu         a1         a2          q         ei         ef   ampl_out output_state        vti     sample
      1     1.9999    -0.4000    -0.0001    20.0026     25.365     38.000 194311.000     30.000    43.4765   -20.0773   -26.4546   120.0962    -0.1480    -3.0001   -54.2224     0.0000   240.0000     0.0000     1.0000   300.0000   300.0000   -50.0379    51.0718    -1.9790    -1.4485    20.0000    20.0000    10.0000    20.0000    26.0000    10.0000    16.0000    20.0000    -0.0005     0.0005   159.4164   -41.1662     3.1849    34.7026    14.7000     2.0000     1.0000   300.0380     0.000
      2     2.0000    -0.4000    -0.0001    19.7498     25.201     41.000 194311.000     30.000    43.6339   -20.0773   -26.5533   120.0962    -0.1480    -3.0001   -54.0105     0.0000   240.0000     0.0000     1.0000   300.0000   300.0000   -50.2041    51.3182    -1.9790    -1.4485    20.0000    20.0000    10.0000    20.0000    26.0000    10.0000    16.0000    20.0000    -0.0005     0.0005   159.4164   -41.1662     3.1850    34.4498    14.7000     2.0000     1.0000   299.9980     0.000
      3     2.0000    -0.4000    -0.0001    19.4997     25.298     54.000 194311.000     30.000    43.7931   -20.0773   -26.6520   120.0962    -0.1480    -3.0001   -53.7978     0.0000   240.0000     0.0000     1.0000   300.0000   300.0000   -50.3711    51.5592    -1.9790    -1.4485    20.0000    20.0000    10.0000    20.0000    26.0000    10.0000    16.0000    20.0000    -0.0005     0.0005   159.4164   -41.1662     3.1850    34.1997    14.7000     2.0000     1.0000   299.9270     0.000
      4     2.0000    -0.4000    -0.0001    19.2502     25.299     46.000 194311.000     30.000    43.9541   -20.0773   -26.7515   120.0962    -0.1480    -3.0001   -53.5845     0.0000   240.0000     0.0000     1.0000   300.0000   300.0000   -50.5369    51.8015    -1.9790    -1.4485    20.0000    20.0000    10.0000    20.0000    26.0000    10.0000    16.0000    20.0000    -0.0005     0.0005   159.4164   -41.1662     3.1851    33.9502    14.7000     2.0000     1.0000   299.9980     0.000
      5     2.0000    -0.4000    -0.0001    19.0004     25.559     59.000 194311.000     30.000    44.1168   -20.0773   -26.8523   120.0962    -0.1480    -3.0001   -53.3706     0.0000   240.0000     0.0000     1.0000   300.0000   300.0000   -50.7029    52.0432    -1.9790    -1.4485    20.0000    20.0000    10.0000    20.0000    26.0000    10.0000    16.0000    20.0000    -0.0005     0.0005   159.4164   -41.1662     3.1850    33.7005    14.7000     2.0000     1.0000   299.8800     0.000
      6     2.0000    -0.4000    -0.0001    18.7494     25.807     41.000 194311.000     30.000    44.2813   -20.0773   -26.9548   120.0962    -0.1480    -3.0001   -53.1560     0.0000   240.0000     0.0000     1.0000   300.0000   300.0000   -50.8687    52.2842    -1.9790    -1.4485    20.0000    20.0000    10.0000    20.0000    26.0000    10.0000    16.0000    20.0000    -0.0005     0.0005   159.4164   -41.1662     3.1849    33.4494    14.7000     2.0000     1.0000   299.9940     0.000
      7     2.0000    -0.4000    -0.0001    18.5001     25.887     39.000 194311.000     30.000    44.4478   -20.0773   -27.0577   120.0962    -0.1480    -3.0001   -52.9407     0.0000   240.0000     0.0000     1.0000   300.0000   300.0000   -51.0341    52.5283    -1.9790    -1.4485    20.0000    20.0000    10.0000    20.0000    26.0000    10.0000    16.0000    20.0000    -0.0005     0.0005   159.4164   -41.1662     3.1850    33.2001    14.7000     2.0000     1.0000   299.9600     0.000
      8     2.0001    -0.4000    -0.0001    18.2502     26.108     56.000 194311.000     30.000    44.6161   -20.0773   -27.1621   120.0962    -0.1480    -3.0001   -52.7248     0.0000   240.0000     0.0000     1.0000   300.0000   300.0000   -51.1991    52.7741    -1.9790    -1.4485    20.0000    20.0000    10.0000    20.0000    26.0000    10.0000    16.0000    20.0000    -0.0005     0.0005   159.4164   -41.1662     3.1851    32.9502    14.7000     2.0000     1.0000   299.9870     0.000
      9     2.0000    -0.4000    -0.0001    17.9999     26.191     55.000 194311.000     30.000    44.7863   -20.0773   -27.2678   120.0962    -0.1480    -3.0001   -52.5081     0.0000   240.0000     0.0000     1.0000   300.0000   300.0000   -51.3642    53.0162    -1.9790    -1.4485    20.0000    20.0000    10.0000    20.0000    26.0000    10.0000    16.0000    20.0000    -0.0005     0.0005   159.4164   -41.1662     3.1850    32.7000    14.7000     2.0000     1.0000   300.0150     0.000
     10     2.0000    -0.4000    -0.0001    17.7505     26.172     65.000 194311.000     30.000    44.9585   -20.0773   -27.3745   120.0962    -0.1480    -3.0001   -52.2908     0.0000   240.0000     0.0000     1.0000   300.0000   300.0000   -51.5292    53.2586    -1.9790    -1.4485    20.0000    20.0000    10.0000    20.0000    26.0000    10.0000    16.0000    20.0000    -0.0005     0.0005   159.4164   -41.1662     3.1850    32.4505    14.7000     2.0000     1.0000   300.0170     0.000
     11     2.0000    -0.4000    -0.0001    17.4998     26.524     49.000 194311.000     30.000    45.1326   -20.0773   -27.4829   120.0962    -0.1480    -3.0001   -52.0728     0.0000   240.0000     0.0000     1.0000   300.0000   300.0000   -51.6941    53.5042    -1.9790    -1.4485    20.0000    20.0000    10.0000    20.0000    26.0000    10.0000    16.0000    20.0000    -0.0005     0.0005   159.4164   -41.1662     3.1850    32.1999    14.7000     2.0000     1.0000   300.0230     0.000
     12     2.0000    -0.4000    -0.0001    17.2498     26.577     73.000 194311.000     30.000    45.3089   -20.0773   -27.5924   120.0962    -0.1480    -3.0001   -51.8540     0.0000   240.0000     0.0000     1.0000   300.0000   300.0000   -51.8584    53.7491    -1.9790    -1.4485    20.0000    20.0000    10.0000    20.0000    26.0000    10.0000    16.0000    20.0000    -0.0005     0.0005   159.4164   -41.1662     3.1850    31.9498    14.7000     2.0000     1.0000   299.9990     0.000
     13     2.0001    -0.4000    -0.0001    17.0002     26.666     70.000 194311.000     30.000    45.4872   -20.0773   -27.7029   120.0962    -0.1480    -3.0001   -51.6345     0.0000   240.0000     0.0000     1.0000   300.0000   300.0000   -52.0224    53.9970    -1.9790    -1.4485    20.0000    20.0000    10.0000    20.0000    26.0000    10.0000    16.0000    20.0000    -0.0005     0.0005   159.4164   -41.1662     3.1851    31.7003    14.7000     2.0000     1.0000   300.0140     0.000
     14     2.0000    -0.4000    -0.0001    16.7496     26.843     68.000 194311.000     30.000    45.6676   -20.0773   -27.8153   120.0962    -0.1480    -3.0001   -51.4143     0.0000   240.0000     0.0000     1.0000   300.0000   300.0000   -52.1868    54.2403    -1.9790    -1.4485    20.0000    20.0000    10.0000    20.0000    26.0000    10.0000    16.0000    20.0000    -0.0005     0.0005   159.4164   -41.1662     3.1849    31.4496    14.7000     2.0000     1.0000   300.0080     0.000
     15     2.0000    -0.4000    -0.0001    16.5002     26.855     66.000 194311.000     30.000    45.8503   -20.0773   -27.9285   120.0962    -0.1480    -3.0001   -51.1934     0.0000   240.0000     0.0000     1.0000   300.0000   300.0000   -52.3507    54.4871    -1.9790    -1.4485    20.0000    20.0000    10.0000    20.0000    26.0000    10.0000    16.0000    20.0000    -0.0005     0.0005   159.4164   -41.1662     3.1850    31.2002    14.7000     2.0000     1.0000   300.0100     0.000
     16     2.0000    -0.4000    -0.0001    16.2499     26.877     72.000 194311.000     30.000    46.0351   -20.0773   -28.0435   120.0962    -0.1480    -3.0001   -50.9717     0.0000   240.0000     0.0000     1.0000   300.0000   300.0000   -52.5143    54.7367    -1.9790    -1.4485    20.0000    20.0000    10.0000    20.0000    26.0000    10.0000    16.0000    20.0000    -0.0005     0.0005   159.4164   -41.1662     3.1851    30.9499    14.7000     2.0000     1.0000   300.0170     0.000
     17     2.0000    -0.4000    -0.0001    15.9997     26.996     65.000 194311.000     30.000    46.2221   -20.0773   -28.1599   120.0962    -0.1480    -3.0001   -50.7492     0.0000   240.0000     0.0000     1.0000   300.0000   300.0000   -52.6776    54.9842    -1.9790    -1.4485    20.0000    20.0000    10.0000    20.0000    26.0000    10.0000    16.0000    20.0000    -0.0005     0.0005   159.4164   -41.1662     3.1850    30.6997    14.7000     2.0000     1.0000   300.0120     0.000
     18     2.0000    -0.4000    -0.0001    15.7505     27.090     58.000 194311.000     30.000    46.4115   -20.0773   -28.2773   120.0962    -0.1480    -3.0001   -50.5260     0.0000   240.0000     0.0000     1.0000   300.0000   300.0000   -52.8414    55.2328    -1.9790    -1.4485    20.0000    20.0000    10.0000    20.0000    26.0000    10.0000    16.0000    20.0000    -0.0005     0.0005   159.4164   -41.1662     3.1851    30.4505    14.7000     2.0000     1.0000   299.9200     0.000
     19     2.0000    -0.4000    -0.0001    15.4998     27.159     47.000 194311.000     30.000    46.6032   -20.0773   -28.3968   120.0962    -0.1480    -3.0001   -50.3021     0.0000   240.0000     0.0000     1.0000   300.0000   300.0000   -53.0044    55.4798    -1.9790    -1.4485    20.0000    20.0000    10.0000    20.0000    26.0000    10.0000    16.0000    20.0000    -0.0005     0.0005   159.4164   -41.1662     3.1849    30.1998    14.7000     2.0000     1.0000   300.0140     0.000
     20     2.0000    -0.4000    -0.0001    15.2500     27.228     42.000 194311.000     30.000    46.7972   -20.0773   -28.5175   120.0962    -0.1480    -3.0001   -50.0773     0.0000   240.0000     0.0000     1.0000   300.0000   300.0000   -53.1675    55.7310    -1.9790    -1.4485    20.0000    20.0000    10.0000    20.0000    26.0000    10.0000    16.0000    20.0000    -0.0005     0.0005   159.4164   -41.1662     3.1850    29.9500    14.7000     2.0000     1.0000   300.0160     0.000
     21     2.0001    -0.4000    -0.0001    15.0002     27.306     60.000 194311.000     30.000    46.9938   -20.0773   -28.6397   120.0962    -0.1480    -3.0001   -49.8518     0.0000   240.0000     0.0000     1.0000   300.0000   300.0000   -53.3304    55.9832    -1.9790    -1.4485    20.0000    20.0000    10.0000    20.0000    26.0000    10.0000    16.0000    20.0000    -0.0005     0.0005   159.4164   -41.1662     3.1851    29.7002    14.7000     2.0000     1.0000   299.9940     0.000
     22     2.0000    -0.4000    -0.0001    14.7497     27.294     40.000 194311.000     30.000    47.1929   -20.0773   -28.7639   120.0962    -0.1480    -3.0001   -49.6254     0.0000   240.0000     0.0000     1.0000   300.0000   300.0000   -53.4930    56.2308    -1.9790    -1.4485    20.0000    20.0000    10.0000    20.0000    26.0000    10.0000    16.0000    20.0000    -0.0005     0.0005   159.4164   -41.1662     3.1849    29.4497    14.7000     2.0000     1.0000   300.0300     0.000
     23     2.0000    -0.4000    -0.0001    14.4999     26.989     41.000 194311.000     30.000    47.3944   -20.0773   -28.8893   120.0962    -0.1480    -3.0001   -49.3982     0.0000   240.0000     0.0000     1.0000   300.0000   300.0000   -53.6556    56.4830    -1.9790    -1.4485    20.0000    20.0000    10.0000    20.0000    26.0000    10.0000    16.0000    20.0000    -0.0005     0.0005   159.4164   -41.1662     3.1850    29.1999    14.7000     2.0000     1.0000   300.0110     0.000
     24     2.0000    -0.4000    -0.0001    14.2506     26.538     46.000 194311.000     30.000    47.5986   -20.0773   -29.0161   120.0962    -0.1480    -3.0001   -49.1702     0.0000   240.0000     0.0000     1.0000   300.0000   300.0000   -53.8176    56.7371    -1.9790    -1.4485    20.0000    20.0000    10.0000    20.0000    26.0000    10.0000    16.0000    20.0000    -0.0005     0.0005   159.4164   -41.1662     3.1851    28.9507    14.7000     2.0000     1.0000   300.0080     0.000
     25     2.0001    -0.4000    -0.0001    13.9994     26.149     30.000 194311.000     30.000    47.8055   -20.0773   -29.1456   120.0962    -0.1480    -3.0001   -48.9414     0.0000   240.0000     0.0000     1.0000   300.0000   300.0000   -53.9801    56.9930    -1.9790    -1.4485    20.0000    20.0000    10.0000    20.0000    26.0000    10.0000    16.0000    20.0000    -0.0005     0.0005   159.4164   -41.1662     3.1851    28.6995    14.7000     2.0000     1.0000   300.0060     0.000
     26     2.0000    -0.4000    -0.0001    13.7502     25.751     33.000 194311.000     30.000    48.0151   -20.0773   -29.2759   120.0962    -0.1480    -3.0001   -48.7117     0.0000   240.0000     0.0000     1.0000   300.0000   300.0000   -54.1421    57.2428    -1.9790    -1.4485    20.0000    20.0000    10.0000    20.0000    26.0000    10.0000    16.0000    20.0000    -0.0005     0.0005   159.4164   -41.1662     3.1850    28.4502    14.7000     2.0000     1.0000   300.0170     0.000
     27     2.0000    -0.4000    -0.0001    13.5004     25.541     23.000 194311.000     30.000    48.2274   -20.0773   -29.4082   120.0962    -0.1480    -3.0001   -48.4811     0.0000   240.0000     0.0000     1.0000   300.0000   300.0000   -54.3041    57.4985    -1.9790    -1.4485    20.0000    20.0000    10.0000    20.0000    26.0000    10.0000    16.0000    20.0000    -0.0005     0.0005   159.4164   -41.1662     3.1850    28.2004    14.7000     2.0000     1.0000   299.8990     0.000
     28     2.0000    -0.4000    -0.0001    13.2496     25.554     30.000 194311.000     30.000    48.4427   -20.0773   -29.5428   120.0962    -0.1480    -3.0001   -48.2497     0.0000   240.0000     0.0000     1.0000   300.0000   300.0000   -54.4656    57.7550    -1.9790    -1.4485    20.0000    20.0000    10.0000    20.0000    26.0000    10.0000    16.0000    20.0000    -0.0005     0.0005   159.4164   -41.1662     3.1850    27.9496    14.7000     2.0000     1.0000   300.0210     0.000
     29     2.0000    -0.4000    -0.0001    12.9999     25.823     30.000 194311.000     30.000    48.6608   -20.0773   -29.6787   120.0962    -0.1480    -3.0001   -48.0174     0.0000   240.0000     0.0000     1.0000   300.0000   300.0000   -54.6273    58.0123    -1.9790    -1.4485    20.0000    20.0000    10.0000    20.0000    26.0000    10.0000    16.0000    20.0000    -0.0005     0.0005   159.4164   -41.1662     3.1851    27.7000    14.7000     2.0000     1.0000   299.9390     0.000
     30     2.0000    -0.4000    -0.0001    12.7500     26.180     39.000 194311.000     30.000    48.8819   -20.0773   -29.8166   120.0962    -0.1480    -3.0001   -47.7842     0.0000   240.0000     0.0000     1.0000   300.0000   300.0000   -54.7890    58.2672    -1.9790    -1.4485    20.0000    20.0000    10.0000    20.0000    26.0000    10.0000    16.0000    20.0000    -0.0005     0.0005   159.4164   -41.1662     3.1849    27.4500    14.7000     2.0000     1.0000   300.0060     0.000
     31     2.0000    -0.4000    -0.0001    12.4999     26.560     34.000 194311.000     30.000    49.1060   -20.0773   -29.9566   120.0962    -0.1480    -3.0001   -47.5501     0.0000   240.0000     0.0000     1.0000   300.0000   300.0000   -54.9498    58.5271    -1.9790    -1.4485    20.0000    20.0000    10.0000    20.0000    26.0000    10.0000    16.0000    20.0000    -0.0005     0.0005   159.4164   -41.1662     3.1850    27.1999    14.7000     2.0000     1.0000   299.9750     0.000
     32     2.0001    -0.4000    -0.0001    12.2503     26.792     26.000 194311.000     30.000    49.3332   -20.0773   -30.0982   120.0962    -0.1480    -3.0001   -47.3151     0.0000   240.0000     0.0000     1.0000   300.0000   300.0000   -55.1112    58.7877    -1.9790    -1.4485    20.0000    20.0000    10.0000    20.0000    26.0000    10.0000    16.0000    20.0000    -0.0005     0.0005   159.4164   -41.1662     3.1851    26.9504    14.7000     2.0000     1.0000   299.9980     0.000
     33     2.0000    -0.4000    -0.0001    11.9996     27.200     37.000 194311.000     30.000    49.5636   -20.0773   -30.2426   120.0962    -0.1480    -3.0001   -47.0791     0.0000   240.0000     0.0000     1.0000   300.0000   300.0000   -55.2720    59.0444    -1.9790    -1.4485    20.0000    20.0000    10.0000    20.0000    26.0000    10.0000    16.0000    20.0000    -0.0005     0.0005   159.4164   -41.1662     3.1849    26.6996    14.7000     2.0000     1.0000   300.0200     0.000
     34     2.0000    -0.4000    -0.0001    11.7500     26.990     31.000 194311.000     30.000    49.7973   -20.0773   -30.3884   120.0962    -0.1480    -3.0001   -46.8422     0.0000   240.0000     0.0000     1.0000   300.0000   300.0000   -55.4327    59.3078    -1.9790    -1.4485    20.0000    20.0000    10.0000    20.0000    26.0000    10.0000    16.0000    20.0000    -0.0005     0.0005   159.4164   -41.1662     3.1850    26.4500    14.7000     2.0000     1.0000   300.0110     0.000
     35     2.0001    -0.4000    -0.0001    11.5002     27.033     25.000 194311.000     30.000    50.0343   -20.0773   -30.5364   120.0962    -0.1480    -3.0001   -46.6044     0.0000   240.0000     0.0000     1.0000   300.0000   300.0000   -55.5939    59.5712    -1.9790    -1.4485    20.0000    20.0000    10.0000    20.0000    26.0000    10.0000    16.0000    20.0000    -0.0005     0.0005   159.4164   -41.1662     3.1851    26.2002    14.7000     2.0000     1.0000   300.0270     0.000
     36     2.0000    -0.4000    -0.0001    11.2501     26.862     31.000 194311.000     30.000    50.2748   -20.0773   -30.6868   120.0962    -0.1480    -3.0001   -46.3655     0.0000   240.0000     0.0000     1.0000   300.0000   300.0000   -55.7541    59.8334    -1.9790    -1.4485    20.0000    20.0000    10.0000    20.0000    26.0000    10.0000    16.0000    20.0000    -0.0005     0.0005   159.4164   -41.1662     3.1850    25.9501    14.7000     2.0000     1.0000   299.9940     0.000
     37     2.0000    -0.4000    -0.0001    11.0000     26.576     39.000 194311.000     30.000    50.5187   -20.0773   -30.8395   120.0962    -0.1480    -3.0001   -46.1257     0.0000   240.0000     0.0000     1.0000   300.0000   300.0000   -55.9143    60.0964    -1.9790    -1.4485    20.0000    20.0000    10.0000    20.0000    26.0000    10.0000    16.0000    20.0000    -0.0005     0.0005   159.4164   -41.1662     3.1850    25.7000    14.7000     2.0000     1.0000   300.0040     0.000
