# scan = 91
# date = 9/6/2024
# time = 6:45:21 AM
# proposal = 32905
# experiment = Effects of electric field on phonon dispersion and lifetimes of poled PMN-30PT
# experiment_number = 812
# command = scan h 2.5 k 0.4 l 0 e 15 0 0.25 preset mcu 30
# builtin_command = scan h 2.5 k 0.4 l 0 e 15 0 0.25 preset mcu 30
# users = George Yumnam, Michael Manley, Puspa Upreti, Raphael Hermann, SHAOFEI WANG
# local_contact = Songxue Chi
# scan_title = (2.5,0.4,0) X to M transverse mode scan at E 240 V
# monochromator = PG002
# analyzer = Pg002
# sense = -+-
# collimation = 48-40-40-120
# samplename = PMN-30PT
# sampletype = crystal
# samplemosaic = 30.000000
# latticeconstants = 4.023634,4.023634,4.023634,90.000000,90.000000,90.000000
# ubmatrix = -0.008055,-0.248252,-0.008588,-0.248328,0.007840,0.006285,-0.006007,0.008785,-0.248304
# mode = 0
# plane_normal = 0.034555,-0.025290,0.999083
# ubconf = UB04Sep2024_115522AM.ini
# preset_type = normal 
# preset_channel = mcu
# preset_value = 30.000000
# def_x = e
# def_y = detector
# col_headers = 
#   Pt.          h          k          l          e       time   detector    monitor        mcu focal_length         m1         m2   mcrystal       marc     mtrans     mfocus       ampl         dc       freq     output       temp     temp_2         s1         s2        sgl        sgu        bbb        bbl        bbr        bbt        bab        bal        bar        bat        stl        stu         a1         a2          q         ei         ef   ampl_out output_state        vti     sample
      1     2.5000     0.4000    -0.0001    15.0019     27.519     29.000 194311.000     30.000    46.9938   -20.0773   -28.6389   120.0962    -0.1480    -3.0001   -49.8518     0.0000   240.0000     0.0000     1.0000   300.0000   300.0000   -29.2363    73.2950    -1.9790    -1.4485    20.0000    20.0000    10.0000    20.0000    26.0000    10.0000    16.0000    20.0000    -0.0005     0.0005   159.4164   -41.1662     3.9536    29.7019    14.7000     2.0000     1.0000   300.0430     0.000
      2     2.5001     0.4000    -0.0001    14.7495     27.158     32.000 194311.000     30.000    47.1929   -20.0773   -28.7640   120.0962    -0.1480    -3.0001   -49.6254     0.0000   240.0000     0.0000     1.0000   300.0000   300.0000   -29.3087    73.5857    -1.9790    -1.4485    20.0000    20.0000    10.0000    20.0000    26.0000    10.0000    16.0000    20.0000    -0.0005     0.0005   159.4164   -41.1662     3.9537    29.4495    14.7000     2.0000     1.0000   300.0300     0.000
      3     2.5000     0.4000    -0.0001    14.4997     26.880     34.000 194311.000     30.000    47.3944   -20.0773   -28.8894   120.0962    -0.1480    -3.0001   -49.3982     0.0000   240.0000     0.0000     1.0000   300.0000   300.0000   -29.3799    73.8720    -1.9790    -1.4485    20.0000    20.0000    10.0000    20.0000    26.0000    10.0000    16.0000    20.0000    -0.0005     0.0005   159.4164   -41.1662     3.9536    29.1997    14.7000     2.0000     1.0000   300.0150     0.000
      4     2.5001     0.4000    -0.0001    14.2507     26.426     39.000 194311.000     30.000    47.5986   -20.0773   -29.0161   120.0962    -0.1480    -3.0001   -49.1702     0.0000   240.0000     0.0000     1.0000   300.0000   300.0000   -29.4507    74.1633    -1.9790    -1.4485    20.0000    20.0000    10.0000    20.0000    26.0000    10.0000    16.0000    20.0000    -0.0005     0.0005   159.4164   -41.1662     3.9537    28.9508    14.7000     2.0000     1.0000   299.9940     0.000
      5     2.4999     0.4000    -0.0001    13.9994     26.007     37.000 194311.000     30.000    47.8055   -20.0773   -29.1457   120.0962    -0.1480    -3.0001   -48.9414     0.0000   240.0000     0.0000     1.0000   300.0000   300.0000   -29.5204    74.4509    -1.9790    -1.4485    20.0000    20.0000    10.0000    20.0000    26.0000    10.0000    16.0000    20.0000    -0.0005     0.0005   159.4164   -41.1662     3.9535    28.6994    14.7000     2.0000     1.0000   299.9110     0.000
      6     2.5000     0.4000    -0.0001    13.7504     25.616     37.000 194311.000     30.000    48.0151   -20.0773   -29.2758   120.0962    -0.1480    -3.0001   -48.7117     0.0000   240.0000     0.0000     1.0000   300.0000   300.0000   -29.5894    74.7466    -1.9790    -1.4485    20.0000    20.0000    10.0000    20.0000    26.0000    10.0000    16.0000    20.0000    -0.0005     0.0005   159.4164   -41.1662     3.9536    28.4504    14.7000     2.0000     1.0000   299.9930     0.000
      7     2.5000     0.4000    -0.0001    13.5003     25.550     37.000 194311.000     30.000    48.2274   -20.0773   -29.4082   120.0962    -0.1480    -3.0001   -48.4811     0.0000   240.0000     0.0000     1.0000   300.0000   300.0000   -29.6576    75.0401    -1.9790    -1.4485    20.0000    20.0000    10.0000    20.0000    26.0000    10.0000    16.0000    20.0000    -0.0005     0.0005   159.4164   -41.1662     3.9536    28.2003    14.7000     2.0000     1.0000   299.9400     0.000
      8     2.5000     0.4000    -0.0001    13.2496     25.506     32.000 194311.000     30.000    48.4427   -20.0773   -29.5428   120.0962    -0.1480    -3.0001   -48.2497     0.0000   240.0000     0.0000     1.0000   300.0000   300.0000   -29.7252    75.3393    -1.9790    -1.4485    20.0000    20.0000    10.0000    20.0000    26.0000    10.0000    16.0000    20.0000    -0.0005     0.0005   159.4164   -41.1662     3.9536    27.9496    14.7000     2.0000     1.0000   299.9950     0.000
      9     2.5000     0.4000    -0.0001    13.0000     25.856     44.000 194311.000     30.000    48.6608   -20.0773   -29.6786   120.0962    -0.1480    -3.0001   -48.0174     0.0000   240.0000     0.0000     1.0000   300.0000   300.0000   -29.7919    75.6359    -1.9790    -1.4485    20.0000    20.0000    10.0000    20.0000    26.0000    10.0000    16.0000    20.0000    -0.0005     0.0005   159.4164   -41.1662     3.9535    27.7000    14.7000     2.0000     1.0000   300.0260     0.000
     10     2.5000     0.4000    -0.0001    12.7500     26.148     45.000 194311.000     30.000    48.8819   -20.0773   -29.8166   120.0962    -0.1480    -3.0001   -47.7842     0.0000   240.0000     0.0000     1.0000   300.0000   300.0000   -29.8575    75.9393    -1.9790    -1.4485    20.0000    20.0000    10.0000    20.0000    26.0000    10.0000    16.0000    20.0000    -0.0005     0.0005   159.4164   -41.1662     3.9536    27.4500    14.7000     2.0000     1.0000   300.0140     0.000
     11     2.5000     0.4000    -0.0001    12.5000     26.486     48.000 194311.000     30.000    49.1060   -20.0773   -29.9565   120.0962    -0.1480    -3.0001   -47.5501     0.0000   240.0000     0.0000     1.0000   300.0000   300.0000   -29.9224    76.2412    -1.9790    -1.4485    20.0000    20.0000    10.0000    20.0000    26.0000    10.0000    16.0000    20.0000    -0.0005     0.0005   159.4164   -41.1662     3.9536    27.2000    14.7000     2.0000     1.0000   300.0050     0.000
     12     2.5000     0.4000    -0.0001    12.2504     26.814     44.000 194311.000     30.000    49.3332   -20.0773   -30.0982   120.0962    -0.1480    -3.0001   -47.3151     0.0000   240.0000     0.0000     1.0000   300.0000   300.0000   -29.9865    76.5472    -1.9790    -1.4485    20.0000    20.0000    10.0000    20.0000    26.0000    10.0000    16.0000    20.0000    -0.0005     0.0005   159.4164   -41.1662     3.9536    26.9504    14.7000     2.0000     1.0000   300.0170     0.000
     13     2.5000     0.4000    -0.0001    11.9996     27.005     71.000 194311.000     30.000    49.5636   -20.0773   -30.2426   120.0962    -0.1480    -3.0001   -47.0791     0.0000   240.0000     0.0000     1.0000   300.0000   300.0000   -30.0496    76.8558    -1.9790    -1.4485    20.0000    20.0000    10.0000    20.0000    26.0000    10.0000    16.0000    20.0000    -0.0005     0.0005   159.4164   -41.1662     3.9536    26.6996    14.7000     2.0000     1.0000   300.0020     0.000
     14     2.5000     0.4000    -0.0001    11.7500     26.981     49.000 194311.000     30.000    49.7973   -20.0773   -30.3884   120.0962    -0.1480    -3.0001   -46.8422     0.0000   240.0000     0.0000     1.0000   300.0000   300.0000   -30.1118    77.1661    -1.9790    -1.4485    20.0000    20.0000    10.0000    20.0000    26.0000    10.0000    16.0000    20.0000    -0.0005     0.0005   159.4164   -41.1662     3.9536    26.4500    14.7000     2.0000     1.0000   300.0190     0.000
     15     2.5000     0.4000    -0.0001    11.5001     27.002     55.000 194311.000     30.000    50.0343   -20.0773   -30.5364   120.0962    -0.1480    -3.0001   -46.6044     0.0000   240.0000     0.0000     1.0000   300.0000   300.0000   -30.1731    77.4755    -1.9790    -1.4485    20.0000    20.0000    10.0000    20.0000    26.0000    10.0000    16.0000    20.0000    -0.0005     0.0005   159.4164   -41.1662     3.9536    26.2001    14.7000     2.0000     1.0000   300.0020     0.000
     16     2.5000     0.4000    -0.0001    11.2501     26.844     57.000 194311.000     30.000    50.2748   -20.0773   -30.6868   120.0962    -0.1480    -3.0001   -46.3655     0.0000   240.0000     0.0000     1.0000   300.0000   300.0000   -30.2333    77.7920    -1.9790    -1.4485    20.0000    20.0000    10.0000    20.0000    26.0000    10.0000    16.0000    20.0000    -0.0005     0.0005   159.4164   -41.1662     3.9536    25.9501    14.7000     2.0000     1.0000   299.9230     0.000
     17     2.5000     0.4000    -0.0001    11.0000     26.615     50.000 194311.000     30.000    50.5187   -20.0773   -30.8395   120.0962    -0.1480    -3.0001   -46.1257     0.0000   240.0000     0.0000     1.0000   300.0000   300.0000   -30.2924    78.1082    -1.9790    -1.4485    20.0000    20.0000    10.0000    20.0000    26.0000    10.0000    16.0000    20.0000    -0.0005     0.0005   159.4164   -41.1662     3.9536    25.7000    14.7000     2.0000     1.0000   299.9920     0.000
     18     2.5000     0.4000    -0.0001    10.7500     26.327     77.000 194311.000     30.000    50.7662   -20.0773   -30.9943   120.0962    -0.1480    -3.0001   -45.8849     0.0000   240.0000     0.0000     1.0000   300.0000   300.0000   -30.3505    78.4261    -1.9790    -1.4485    20.0000    20.0000    10.0000    20.0000    26.0000    10.0000    16.0000    20.0000    -0.0005     0.0005   159.4164   -41.1662     3.9536    25.4501    14.7000     2.0000     1.0000   299.9520     0.000
     19     2.5000     0.4000    -0.0001    10.5002     26.356     54.000 194311.000     30.000    51.0174   -20.0773   -31.1515   120.0962    -0.1480    -3.0001   -45.6430     0.0000   240.0000     0.0000     1.0000   300.0000   300.0000   -30.4075    78.7491    -1.9790    -1.4485    20.0000    20.0000    10.0000    20.0000    26.0000    10.0000    16.0000    20.0000    -0.0005     0.0005   159.4164   -41.1662     3.9536    25.2002    14.7000     2.0000     1.0000   300.0050     0.000
     20     2.5000     0.4000    -0.0001    10.2504     26.557     52.000 194311.000     30.000    51.2724   -20.0773   -31.3110   120.0962    -0.1480    -3.0001   -45.4002     0.0000   240.0000     0.0000     1.0000   300.0000   300.0000   -30.4640    79.0710    -1.9790    -1.4485    20.0000    20.0000    10.0000    20.0000    26.0000    10.0000    16.0000    20.0000    -0.0005     0.0005   159.4164   -41.1662     3.9536    24.9504    14.7000     2.0000     1.0000   300.0270     0.000
     21     2.5000     0.4000    -0.0001     9.9999     26.631     63.000 194311.000     30.000    51.5312   -20.0773   -31.4734   120.0962    -0.1480    -3.0001   -45.1562     0.0000   240.0000     0.0000     1.0000   300.0000   300.0000   -30.5185    79.3999    -1.9790    -1.4485    20.0000    20.0000    10.0000    20.0000    26.0000    10.0000    16.0000    20.0000    -0.0005     0.0005   159.4164   -41.1662     3.9536    24.6999    14.7000     2.0000     1.0000   300.0150     0.000
     22     2.5000     0.4000    -0.0001     9.7499     27.110     53.000 194311.000     30.000    51.7940   -20.0773   -31.6382   120.0962    -0.1480    -3.0001   -44.9112     0.0000   240.0000     0.0000     1.0000   300.0000   300.0000   -30.5720    79.7290    -1.9790    -1.4485    20.0000    20.0000    10.0000    20.0000    26.0000    10.0000    16.0000    20.0000    -0.0005     0.0005   159.4164   -41.1662     3.9536    24.4499    14.7000     2.0000     1.0000   300.0260     0.000
     23     2.4999     0.4000    -0.0001     9.4997     27.486     45.000 194311.000     30.000    52.0609   -20.0773   -31.8056   120.0962    -0.1480    -3.0001   -44.6652     0.0000   240.0000     0.0000     1.0000   300.0000   300.0000   -30.6246    80.0586    -1.9790    -1.4485    20.0000    20.0000    10.0000    20.0000    26.0000    10.0000    16.0000    20.0000    -0.0005     0.0005   159.4164   -41.1662     3.9535    24.1997    14.7000     2.0000     1.0000   299.9970     0.000
     24     2.5001     0.4000    -0.0001     9.2503     27.536     55.000 194311.000     30.000    52.3319   -20.0773   -31.9752   120.0962    -0.1480    -3.0001   -44.4180     0.0000   240.0000     0.0000     1.0000   300.0000   300.0000   -30.6760    80.3989    -1.9790    -1.4485    20.0000    20.0000    10.0000    20.0000    26.0000    10.0000    16.0000    20.0000    -0.0005     0.0005   159.4164   -41.1662     3.9537    23.9503    14.7000     2.0000     1.0000   300.0180     0.000
     25     2.5000     0.4000    -0.0001     8.9999     27.472     57.000 194311.000     30.000    52.6071   -20.0773   -32.1482   120.0962    -0.1480    -3.0001   -44.1697     0.0000   240.0000     0.0000     1.0000   300.0000   300.0000   -30.7258    80.7348    -1.9790    -1.4485    20.0000    20.0000    10.0000    20.0000    26.0000    10.0000    16.0000    20.0000    -0.0005     0.0005   159.4164   -41.1662     3.9536    23.6999    14.7000     2.0000     1.0000   299.9000     0.000
     26     2.5000     0.4000    -0.0001     8.7501     26.887     50.000 194311.000     30.000    52.8868   -20.0773   -32.3237   120.0962    -0.1480    -3.0001   -43.9203     0.0000   240.0000     0.0000     1.0000   300.0000   300.0000   -30.7746    81.0735    -1.9790    -1.4485    20.0000    20.0000    10.0000    20.0000    26.0000    10.0000    16.0000    20.0000    -0.0005     0.0005   159.4164   -41.1662     3.9535    23.4501    14.7000     2.0000     1.0000   300.0050     0.000
     27     2.5000     0.4000    -0.0001     8.5000     26.135     39.000 194311.000     30.000    53.1710   -20.0773   -32.5022   120.0962    -0.1480    -3.0001   -43.6697     0.0000   240.0000     0.0000     1.0000   300.0000   300.0000   -30.8216    81.4188    -1.9790    -1.4485    20.0000    20.0000    10.0000    20.0000    26.0000    10.0000    16.0000    20.0000    -0.0005     0.0005   159.4164   -41.1662     3.9536    23.2000    14.7000     2.0000     1.0000   300.0210     0.000
     28     2.5000     0.4000    -0.0001     8.2498     25.281     64.000 194311.000     30.000    53.4598   -20.0773   -32.6838   120.0962    -0.1480    -3.0001   -43.4180     0.0000   240.0000     0.0000     1.0000   300.0000   300.0000   -30.8675    81.7666    -1.9790    -1.4485    20.0000    20.0000    10.0000    20.0000    26.0000    10.0000    16.0000    20.0000    -0.0005     0.0005   159.4164   -41.1662     3.9536    22.9498    14.7000     2.0000     1.0000   300.0010     0.000
     29     2.5000     0.4000    -0.0001     7.9999     24.636     60.000 194311.000     30.000    53.7534   -20.0773   -32.8683   120.0962    -0.1480    -3.0001   -43.1651     0.0000   240.0000     0.0000     1.0000   300.0000   300.0000   -30.9121    82.1170    -1.9790    -1.4485    20.0000    20.0000    10.0000    20.0000    26.0000    10.0000    16.0000    20.0000    -0.0005     0.0005   159.4164   -41.1662     3.9536    22.6999    14.7000     2.0000     1.0000   300.0320     0.000
     30     2.5000     0.4000    -0.0001     7.7501     24.095     59.000 194311.000     30.000    54.0519   -20.0773   -33.0559   120.0962    -0.1480    -3.0001   -42.9109     0.0000   240.0000     0.0000     1.0000   300.0000   300.0000   -30.9550    82.4688    -1.9790    -1.4485    20.0000    20.0000    10.0000    20.0000    26.0000    10.0000    16.0000    20.0000    -0.0005     0.0005   159.4164   -41.1662     3.9535    22.4501    14.7000     2.0000     1.0000   300.0120     0.000
     31     2.5000     0.4000    -0.0001     7.4998     24.064     56.000 194311.000     30.000    54.3554   -20.0773   -33.2471   120.0962    -0.1480    -3.0001   -42.6556     0.0000   240.0000     0.0000     1.0000   300.0000   300.0000   -30.9962    82.8285    -1.9790    -1.4485    20.0000    20.0000    10.0000    20.0000    26.0000    10.0000    16.0000    20.0000    -0.0005     0.0005   159.4164   -41.1662     3.9536    22.1998    14.7000     2.0000     1.0000   300.0120     0.000
     32     2.5000     0.4000    -0.0001     7.2503     23.987     76.000 194311.000     30.000    54.6640   -20.0773   -33.4411   120.0962    -0.1480    -3.0001   -42.3989     0.0000   240.0000     0.0000     1.0000   300.0000   300.0000   -31.0362    83.1895    -1.9790    -1.4485    20.0000    20.0000    10.0000    20.0000    26.0000    10.0000    16.0000    20.0000    -0.0005     0.0005   159.4164   -41.1662     3.9536    21.9503    14.7000     2.0000     1.0000   299.9900     0.000
     33     2.5000     0.4000    -0.0001     6.9997     23.948     65.000 194311.000     30.000    54.9780   -20.0773   -33.6393   120.0962    -0.1480    -3.0001   -42.1410     0.0000   240.0000     0.0000     1.0000   300.0000   300.0000   -31.0745    83.5533    -1.9790    -1.4485    20.0000    20.0000    10.0000    20.0000    26.0000    10.0000    16.0000    20.0000    -0.0005     0.0005   159.4164   -41.1662     3.9536    21.6997    14.7000     2.0000     1.0000   300.0190     0.000
     34     2.5000     0.4000    -0.0001     6.7501     24.085     54.000 194311.000     30.000    55.2975   -20.0773   -33.8403   120.0962    -0.1480    -3.0001   -41.8818     0.0000   240.0000     0.0000     1.0000   300.0000   300.0000   -31.1106    83.9218    -1.9790    -1.4485    20.0000    20.0000    10.0000    20.0000    26.0000    10.0000    16.0000    20.0000    -0.0005     0.0005   159.4164   -41.1662     3.9536    21.4501    14.7000     2.0000     1.0000   300.0240     0.000
     35     2.5000     0.4000    -0.0001     6.5000     24.272     51.000 194311.000     30.000    55.6225   -20.0773   -34.0453   120.0962    -0.1480    -3.0001   -41.6214     0.0000   240.0000     0.0000     1.0000   300.0000   300.0000   -31.1453    84.2926    -1.9790    -1.4485    20.0000    20.0000    10.0000    20.0000    26.0000    10.0000    16.0000    20.0000    -0.0005     0.0005   159.4164   -41.1662     3.9536    21.2001    14.7000     2.0000     1.0000   300.0140     0.000
     36     2.5000     0.4000    -0.0001     6.2500     24.563     66.000 194311.000     30.000    55.9535   -20.0773   -34.2541   120.0962    -0.1480    -3.0001   -41.3595     0.0000   240.0000     0.0000     1.0000   300.0000   300.0000   -31.1786    84.6672    -1.9790    -1.4485    20.0000    20.0000    10.0000    20.0000    26.0000    10.0000    16.0000    20.0000    -0.0005     0.0005   159.4164   -41.1662     3.9535    20.9500    14.7000     2.0000     1.0000   300.0120     0.000
     37     2.5000     0.4000    -0.0001     6.0002     24.814     59.000 194311.000     30.000    56.2903   -20.0773   -34.4667   120.0962    -0.1480    -3.0001   -41.0963     0.0000   240.0000     0.0000     1.0000   300.0000   300.0000   -31.2091    85.0483    -1.9790    -1.4485    20.0000    20.0000    10.0000    20.0000    26.0000    10.0000    16.0000    20.0000    -0.0005     0.0005   159.4164   -41.1662     3.9536    20.7002    14.7000     2.0000     1.0000   300.0200     0.000
