# scan = 60
# date = 9/5/2024
# time = 12:46:21 PM
# proposal = 32905
# experiment = Effects of electric field on phonon dispersion and lifetimes of poled PMN-30PT
# experiment_number = 812
# command = scan h 2.5 k -0.5 l 0 e 15 0 0.25 preset mcu 30
# builtin_command = scan h 2.5 k -0.5 l 0 e 15 0 0.25 preset mcu 30
# users = George Yumnam, Michael Manley, Puspa Upreti, Raphael Hermann, SHAOFEI WANG
# local_contact = Songxue Chi
# scan_title = h1.5 k0.65 l0 scans
# monochromator = PG002
# analyzer = Pg002
# sense = -+-
# collimation = 48-40-40-120
# samplename = PMN-30PT
# sampletype = crystal
# samplemosaic = 30.000000
# latticeconstants = 4.023634,4.023634,4.023634,90.000000,90.000000,90.000000
# ubmatrix = -0.008055,-0.248252,-0.008588,-0.248328,0.007840,0.006285,-0.006007,0.008785,-0.248304
# mode = 0
# plane_normal = 0.034555,-0.025290,0.999083
# ubconf = UB04Sep2024_115522AM.ini
# preset_type = normal 
# preset_channel = mcu
# preset_value = 30.000000
# def_x = e
# def_y = detector
# col_headers = 
#   Pt.          h          k          l          e       time   detector    monitor        mcu focal_length         m1         m2   mcrystal       marc     mtrans     mfocus       ampl         dc       freq     output       temp     temp_2         s1         s2        sgl        sgu        bbb        bbl        bbr        bbt        bab        bal        bar        bat        stl        stu         a1         a2          q         ei         ef   ampl_out output_state        vti     sample
      1     2.5000    -0.5000    -0.0001    15.0018     27.653     23.000 194311.000     30.000    46.9938   -20.0773   -28.6390   120.0962    -0.1480    -3.0001   -49.8518     0.0000    10.0000     0.0000     1.0000   300.0000   300.0000   -49.4612    73.9462    -1.9790    -1.4485    20.0000    20.0000    10.0000    20.0000    26.0000    10.0000    16.0000    20.0000    -0.0005     0.0005   159.4164   -41.1662     3.9813    29.7018    14.7000     2.0000     1.0000   299.9750     0.000
      2     2.5000    -0.5000    -0.0001    14.7495     27.412     27.000 194311.000     30.000    47.1929   -20.0773   -28.7640   120.0962    -0.1480    -3.0001   -49.6254     0.0000    10.0000     0.0000     1.0000   300.0000   300.0000   -49.5304    74.2338    -1.9790    -1.4485    20.0000    20.0000    10.0000    20.0000    26.0000    10.0000    16.0000    20.0000    -0.0005     0.0005   159.4164   -41.1662     3.9812    29.4495    14.7000     2.0000     1.0000   300.0200     0.000
      3     2.5000    -0.5000    -0.0001    14.4998     27.145     37.000 194311.000     30.000    47.3944   -20.0773   -28.8894   120.0962    -0.1480    -3.0001   -49.3982     0.0000    10.0000     0.0000     1.0000   300.0000   300.0000   -49.5989    74.5249    -1.9790    -1.4485    20.0000    20.0000    10.0000    20.0000    26.0000    10.0000    16.0000    20.0000    -0.0005     0.0005   159.4164   -41.1662     3.9812    29.1998    14.7000     2.0000     1.0000   300.0140     0.000
      4     2.5000    -0.5000    -0.0001    14.2507     26.680     35.000 194311.000     30.000    47.5986   -20.0773   -29.0161   120.0962    -0.1480    -3.0001   -49.1702     0.0000    10.0000     0.0000     1.0000   300.0000   300.0000   -49.6661    74.8166    -1.9790    -1.4485    20.0000    20.0000    10.0000    20.0000    26.0000    10.0000    16.0000    20.0000    -0.0005     0.0005   159.4164   -41.1662     3.9813    28.9508    14.7000     2.0000     1.0000   299.9790     0.000
      5     2.5000    -0.5000    -0.0001    13.9994     26.259     54.000 194311.000     30.000    47.8055   -20.0773   -29.1457   120.0962    -0.1480    -3.0001   -48.9414     0.0000    10.0000     0.0000     1.0000   300.0000   300.0000   -49.7330    75.1113    -1.9790    -1.4485    20.0000    20.0000    10.0000    20.0000    26.0000    10.0000    16.0000    20.0000    -0.0005     0.0005   159.4164   -41.1662     3.9813    28.6994    14.7000     2.0000     1.0000   300.0090     0.000
      6     2.5001    -0.5001    -0.0001    13.7503     25.905     31.000 194311.000     30.000    48.0151   -20.0773   -29.2758   120.0962    -0.1480    -3.0001   -48.7117     0.0000    10.0000     0.0000     1.0000   300.0000   300.0000   -49.7991    75.4072    -1.9790    -1.4485    20.0000    20.0000    10.0000    20.0000    26.0000    10.0000    16.0000    20.0000    -0.0005     0.0005   159.4164   -41.1662     3.9813    28.4503    14.7000     2.0000     1.0000   299.9970     0.000
      7     2.5000    -0.5000    -0.0001    13.5003     25.794     31.000 194311.000     30.000    48.2274   -20.0773   -29.4082   120.0962    -0.1480    -3.0001   -48.4811     0.0000    10.0000     0.0000     1.0000   300.0000   300.0000   -49.8641    75.7027    -1.9790    -1.4485    20.0000    20.0000    10.0000    20.0000    26.0000    10.0000    16.0000    20.0000    -0.0005     0.0005   159.4164   -41.1662     3.9813    28.2003    14.7000     2.0000     1.0000   299.9870     0.000
      8     2.5000    -0.5000    -0.0001    13.2496     25.629     43.000 194311.000     30.000    48.4427   -20.0773   -29.5428   120.0962    -0.1480    -3.0001   -48.2497     0.0000    10.0000     0.0000     1.0000   300.0000   300.0000   -49.9282    76.0025    -1.9790    -1.4485    20.0000    20.0000    10.0000    20.0000    26.0000    10.0000    16.0000    20.0000    -0.0005     0.0005   159.4164   -41.1662     3.9813    27.9496    14.7000     2.0000     1.0000   300.0010     0.000
      9     2.5000    -0.5000    -0.0001    13.0000     25.818     29.000 194311.000     30.000    48.6608   -20.0773   -29.6786   120.0962    -0.1480    -3.0001   -48.0174     0.0000    10.0000     0.0000     1.0000   300.0000   300.0000   -49.9920    76.3035    -1.9790    -1.4485    20.0000    20.0000    10.0000    20.0000    26.0000    10.0000    16.0000    20.0000    -0.0005     0.0005   159.4164   -41.1662     3.9813    27.7000    14.7000     2.0000     1.0000   300.0080     0.000
     10     2.5000    -0.5000    -0.0001    12.7500     26.332     44.000 194311.000     30.000    48.8819   -20.0773   -29.8166   120.0962    -0.1480    -3.0001   -47.7842     0.0000    10.0000     0.0000     1.0000   300.0000   300.0000   -50.0544    76.6074    -1.9790    -1.4485    20.0000    20.0000    10.0000    20.0000    26.0000    10.0000    16.0000    20.0000    -0.0005     0.0005   159.4164   -41.1662     3.9813    27.4500    14.7000     2.0000     1.0000   299.9950     0.000
     11     2.5000    -0.5000    -0.0001    12.4999     26.637     38.000 194311.000     30.000    49.1060   -20.0773   -29.9566   120.0962    -0.1480    -3.0001   -47.5501     0.0000    10.0000     0.0000     1.0000   300.0000   300.0000   -50.1163    76.9123    -1.9790    -1.4485    20.0000    20.0000    10.0000    20.0000    26.0000    10.0000    16.0000    20.0000    -0.0005     0.0005   159.4164   -41.1662     3.9813    27.1999    14.7000     2.0000     1.0000   300.0050     0.000
     12     2.5000    -0.5000    -0.0001    12.2504     27.018     26.000 194311.000     30.000    49.3332   -20.0773   -30.0982   120.0962    -0.1480    -3.0001   -47.3151     0.0000    10.0000     0.0000     1.0000   300.0000   300.0000   -50.1767    77.2200    -1.9790    -1.4485    20.0000    20.0000    10.0000    20.0000    26.0000    10.0000    16.0000    20.0000    -0.0005     0.0005   159.4164   -41.1662     3.9813    26.9504    14.7000     2.0000     1.0000   299.9960     0.000
     13     2.5000    -0.5000    -0.0001    11.9996     27.325     32.000 194311.000     30.000    49.5636   -20.0773   -30.2426   120.0962    -0.1480    -3.0001   -47.0791     0.0000    10.0000     0.0000     1.0000   300.0000   300.0000   -50.2368    77.5300    -1.9790    -1.4485    20.0000    20.0000    10.0000    20.0000    26.0000    10.0000    16.0000    20.0000    -0.0005     0.0005   159.4164   -41.1662     3.9813    26.6996    14.7000     2.0000     1.0000   300.0070     0.000
     14     2.5000    -0.5000    -0.0001    11.7499     27.212     39.000 194311.000     30.000    49.7973   -20.0773   -30.3884   120.0962    -0.1480    -3.0001   -46.8422     0.0000    10.0000     0.0000     1.0000   300.0000   300.0000   -50.2956    77.8397    -1.9790    -1.4485    20.0000    20.0000    10.0000    20.0000    26.0000    10.0000    16.0000    20.0000    -0.0005     0.0005   159.4164   -41.1662     3.9812    26.4499    14.7000     2.0000     1.0000   299.9070     0.000
     15     2.5001    -0.5000    -0.0001    11.5002     27.143     34.000 194311.000     30.000    50.0343   -20.0773   -30.5364   120.0962    -0.1480    -3.0001   -46.6044     0.0000    10.0000     0.0000     1.0000   300.0000   300.0000   -50.3533    78.1574    -1.9790    -1.4485    20.0000    20.0000    10.0000    20.0000    26.0000    10.0000    16.0000    20.0000    -0.0005     0.0005   159.4164   -41.1662     3.9813    26.2002    14.7000     2.0000     1.0000   300.0110     0.000
     16     2.5000    -0.5000    -0.0001    11.2501     26.914     50.000 194311.000     30.000    50.2748   -20.0773   -30.6868   120.0962    -0.1480    -3.0001   -46.3655     0.0000    10.0000     0.0000     1.0000   300.0000   300.0000   -50.4101    78.4708    -1.9790    -1.4485    20.0000    20.0000    10.0000    20.0000    26.0000    10.0000    16.0000    20.0000    -0.0005     0.0005   159.4164   -41.1662     3.9812    25.9501    14.7000     2.0000     1.0000   299.9500     0.000
     17     2.5000    -0.5000    -0.0001    10.9999     26.782     56.000 194311.000     30.000    50.5187   -20.0773   -30.8395   120.0962    -0.1480    -3.0001   -46.1257     0.0000    10.0000     0.0000     1.0000   300.0000   300.0000   -50.4659    78.7924    -1.9790    -1.4485    20.0000    20.0000    10.0000    20.0000    26.0000    10.0000    16.0000    20.0000    -0.0005     0.0005   159.4164   -41.1662     3.9813    25.6999    14.7000     2.0000     1.0000   300.0040     0.000
     18     2.5000    -0.5000    -0.0001    10.7501     26.584     71.000 194311.000     30.000    50.7662   -20.0773   -30.9943   120.0962    -0.1480    -3.0001   -45.8849     0.0000    10.0000     0.0000     1.0000   300.0000   300.0000   -50.5207    79.1133    -1.9790    -1.4485    20.0000    20.0000    10.0000    20.0000    26.0000    10.0000    16.0000    20.0000    -0.0005     0.0005   159.4164   -41.1662     3.9813    25.4501    14.7000     2.0000     1.0000   300.0120     0.000
     19     2.5000    -0.5000    -0.0001    10.5002     26.506     48.000 194311.000     30.000    51.0174   -20.0773   -31.1515   120.0962    -0.1480    -3.0001   -45.6430     0.0000    10.0000     0.0000     1.0000   300.0000   300.0000   -50.5742    79.4367    -1.9790    -1.4485    20.0000    20.0000    10.0000    20.0000    26.0000    10.0000    16.0000    20.0000    -0.0005     0.0005   159.4164   -41.1662     3.9812    25.2002    14.7000     2.0000     1.0000   299.9950     0.000
     20     2.5000    -0.5000    -0.0001    10.2503     26.609     39.000 194311.000     30.000    51.2724   -20.0773   -31.3110   120.0962    -0.1480    -3.0001   -45.4002     0.0000    10.0000     0.0000     1.0000   300.0000   300.0000   -50.6264    79.7649    -1.9790    -1.4485    20.0000    20.0000    10.0000    20.0000    26.0000    10.0000    16.0000    20.0000    -0.0005     0.0005   159.4164   -41.1662     3.9813    24.9504    14.7000     2.0000     1.0000   300.0160     0.000
     21     2.5000    -0.5000    -0.0001    10.0000     26.860     49.000 194311.000     30.000    51.5312   -20.0773   -31.4734   120.0962    -0.1480    -3.0001   -45.1562     0.0000    10.0000     0.0000     1.0000   300.0000   300.0000   -50.6776    80.0936    -1.9790    -1.4485    20.0000    20.0000    10.0000    20.0000    26.0000    10.0000    16.0000    20.0000    -0.0005     0.0005   159.4164   -41.1662     3.9812    24.7000    14.7000     2.0000     1.0000   300.0060     0.000
     22     2.5000    -0.5000    -0.0001     9.7499     27.240     60.000 194311.000     30.000    51.7940   -20.0773   -31.6382   120.0962    -0.1480    -3.0001   -44.9112     0.0000    10.0000     0.0000     1.0000   300.0000   300.0000   -50.7279    80.4265    -1.9790    -1.4485    20.0000    20.0000    10.0000    20.0000    26.0000    10.0000    16.0000    20.0000    -0.0005     0.0005   159.4164   -41.1662     3.9812    24.4499    14.7000     2.0000     1.0000   300.0040     0.000
     23     2.5000    -0.5000    -0.0001     9.4998     27.591     68.000 194311.000     30.000    52.0609   -20.0773   -31.8055   120.0962    -0.1480    -3.0001   -44.6652     0.0000    10.0000     0.0000     1.0000   300.0000   300.0000   -50.7767    80.7621    -1.9790    -1.4485    20.0000    20.0000    10.0000    20.0000    26.0000    10.0000    16.0000    20.0000    -0.0005     0.0005   159.4164   -41.1662     3.9813    24.1998    14.7000     2.0000     1.0000   299.9960     0.000
     24     2.5000    -0.5000    -0.0001     9.2502     27.743     50.000 194311.000     30.000    52.3319   -20.0773   -31.9752   120.0962    -0.1480    -3.0001   -44.4180     0.0000    10.0000     0.0000     1.0000   300.0000   300.0000   -50.8242    81.0995    -1.9790    -1.4485    20.0000    20.0000    10.0000    20.0000    26.0000    10.0000    16.0000    20.0000    -0.0005     0.0005   159.4164   -41.1662     3.9813    23.9503    14.7000     2.0000     1.0000   300.0220     0.000
     25     2.5000    -0.5000    -0.0001     9.0000     27.528     47.000 194311.000     30.000    52.6071   -20.0773   -32.1481   120.0962    -0.1480    -3.0001   -44.1697     0.0000    10.0000     0.0000     1.0000   300.0000   300.0000   -50.8702    81.4385    -1.9790    -1.4485    20.0000    20.0000    10.0000    20.0000    26.0000    10.0000    16.0000    20.0000    -0.0005     0.0005   159.4164   -41.1662     3.9812    23.7000    14.7000     2.0000     1.0000   299.9110     0.000
     26     2.5000    -0.5000    -0.0001     8.7501     27.003     70.000 194311.000     30.000    52.8868   -20.0773   -32.3237   120.0962    -0.1480    -3.0001   -43.9203     0.0000    10.0000     0.0000     1.0000   300.0000   300.0000   -50.9150    81.7855    -1.9790    -1.4485    20.0000    20.0000    10.0000    20.0000    26.0000    10.0000    16.0000    20.0000    -0.0005     0.0005   159.4164   -41.1662     3.9813    23.4501    14.7000     2.0000     1.0000   300.0150     0.000
     27     2.5000    -0.5000    -0.0001     8.5000     26.347     61.000 194311.000     30.000    53.1710   -20.0773   -32.5022   120.0962    -0.1480    -3.0001   -43.6697     0.0000    10.0000     0.0000     1.0000   300.0000   300.0000   -50.9586    82.1324    -1.9790    -1.4485    20.0000    20.0000    10.0000    20.0000    26.0000    10.0000    16.0000    20.0000    -0.0005     0.0005   159.4164   -41.1662     3.9813    23.2000    14.7000     2.0000     1.0000   299.9680     0.000
     28     2.5000    -0.5000    -0.0001     8.2499     25.635     72.000 194311.000     30.000    53.4598   -20.0773   -32.6837   120.0962    -0.1480    -3.0001   -43.4180     0.0000    10.0000     0.0000     1.0000   300.0000   300.0000   -51.0001    82.4816    -1.9790    -1.4485    20.0000    20.0000    10.0000    20.0000    26.0000    10.0000    16.0000    20.0000    -0.0005     0.0005   159.4164   -41.1662     3.9812    22.9499    14.7000     2.0000     1.0000   300.0070     0.000
     29     2.5000    -0.5000    -0.0001     7.9999     24.583     56.000 194311.000     30.000    53.7534   -20.0773   -32.8683   120.0962    -0.1480    -3.0001   -43.1651     0.0000    10.0000     0.0000     1.0000   300.0000   300.0000   -51.0410    82.8349    -1.9790    -1.4485    20.0000    20.0000    10.0000    20.0000    26.0000    10.0000    16.0000    20.0000    -0.0005     0.0005   159.4164   -41.1662     3.9812    22.6999    14.7000     2.0000     1.0000   300.0250     0.000
     30     2.5000    -0.5000    -0.0001     7.7502     24.286     82.000 194311.000     30.000    54.0519   -20.0773   -33.0558   120.0962    -0.1480    -3.0001   -42.9109     0.0000    10.0000     0.0000     1.0000   300.0000   300.0000   -51.0796    83.1950    -1.9790    -1.4485    20.0000    20.0000    10.0000    20.0000    26.0000    10.0000    16.0000    20.0000    -0.0005     0.0005   159.4164   -41.1662     3.9813    22.4502    14.7000     2.0000     1.0000   299.9970     0.000
     31     2.5000    -0.5000    -0.0001     7.4999     24.004     77.000 194311.000     30.000    54.3554   -20.0773   -33.2470   120.0962    -0.1480    -3.0001   -42.6556     0.0000    10.0000     0.0000     1.0000   300.0000   300.0000   -51.1169    83.5548    -1.9790    -1.4485    20.0000    20.0000    10.0000    20.0000    26.0000    10.0000    16.0000    20.0000    -0.0005     0.0005   159.4164   -41.1662     3.9813    22.1999    14.7000     2.0000     1.0000   300.0030     0.000
     32     2.5000    -0.5000    -0.0001     7.2503     24.107     69.000 194311.000     30.000    54.6640   -20.0773   -33.4410   120.0962    -0.1480    -3.0001   -42.3989     0.0000    10.0000     0.0000     1.0000   300.0000   300.0000   -51.1526    83.9192    -1.9790    -1.4485    20.0000    20.0000    10.0000    20.0000    26.0000    10.0000    16.0000    20.0000    -0.0005     0.0005   159.4164   -41.1662     3.9813    21.9503    14.7000     2.0000     1.0000   300.0000     0.000
     33     2.5000    -0.5000    -0.0001     6.9996     24.113     61.000 194311.000     30.000    54.9780   -20.0773   -33.6393   120.0962    -0.1480    -3.0001   -42.1410     0.0000    10.0000     0.0000     1.0000   300.0000   300.0000   -51.1864    84.2855    -1.9790    -1.4485    20.0000    20.0000    10.0000    20.0000    26.0000    10.0000    16.0000    20.0000    -0.0005     0.0005   159.4164   -41.1662     3.9812    21.6996    14.7000     2.0000     1.0000   300.0130     0.000
     34     2.5000    -0.5000    -0.0001     6.7501     24.235     80.000 194311.000     30.000    55.2975   -20.0773   -33.8403   120.0962    -0.1480    -3.0001   -41.8818     0.0000    10.0000     0.0000     1.0000   300.0000   300.0000   -51.2187    84.6568    -1.9790    -1.4485    20.0000    20.0000    10.0000    20.0000    26.0000    10.0000    16.0000    20.0000    -0.0005     0.0005   159.4164   -41.1662     3.9812    21.4501    14.7000     2.0000     1.0000   299.9980     0.000
     35     2.5000    -0.5000    -0.0001     6.4999     24.479     77.000 194311.000     30.000    55.6225   -20.0773   -34.0454   120.0962    -0.1480    -3.0001   -41.6214     0.0000    10.0000     0.0000     1.0000   300.0000   300.0000   -51.2489    85.0330    -1.9790    -1.4485    20.0000    20.0000    10.0000    20.0000    26.0000    10.0000    16.0000    20.0000    -0.0005     0.0005   159.4164   -41.1662     3.9812    21.1999    14.7000     2.0000     1.0000   299.9820     0.000
     36     2.5000    -0.5000    -0.0001     6.2500     24.662     91.000 194311.000     30.000    55.9535   -20.0773   -34.2541   120.0962    -0.1480    -3.0001   -41.3595     0.0000    10.0000     0.0000     1.0000   300.0000   300.0000   -51.2771    85.4139    -1.9790    -1.4485    20.0000    20.0000    10.0000    20.0000    26.0000    10.0000    16.0000    20.0000    -0.0005     0.0005   159.4164   -41.1662     3.9812    20.9500    14.7000     2.0000     1.0000   300.0210     0.000
     37     2.5000    -0.5001    -0.0001     6.0002     25.008     81.000 194311.000     30.000    56.2903   -20.0773   -34.4667   120.0962    -0.1480    -3.0001   -41.0963     0.0000    10.0000     0.0000     1.0000   300.0000   300.0000   -51.3039    85.8003    -1.9790    -1.4485    20.0000    20.0000    10.0000    20.0000    26.0000    10.0000    16.0000    20.0000    -0.0005     0.0005   159.4164   -41.1662     3.9813    20.7002    14.7000     2.0000     1.0000   300.0030     0.000
