# scan = 28
# date = 9/4/2024
# time = 5:56:42 PM
# proposal = 32905
# experiment = Effects of electric field on phonon dispersion and lifetimes of poled PMN-30PT
# experiment_number = 812
# command = scan h 2 k -0.4 l 0 e 20 0 0.25 preset mcu 30
# builtin_command = scan h 2 k -0.4 l 0 e 20 0 0.25 preset mcu 30
# users = George Yumnam, Michael Manley, Puspa Upreti, Raphael Hermann, SHAOFEI WANG
# local_contact = Songxue Chi
# scan_title = 2k0 scans
# monochromator = PG002
# analyzer = Pg002
# sense = -+-
# collimation = 48-40-40-120
# samplename = PMN-30PT
# sampletype = crystal
# samplemosaic = 30.000000
# latticeconstants = 4.023634,4.023634,4.023634,90.000000,90.000000,90.000000
# ubmatrix = -0.008055,-0.248252,-0.008588,-0.248328,0.007840,0.006285,-0.006007,0.008785,-0.248304
# mode = 0
# plane_normal = 0.034555,-0.025290,0.999083
# ubconf = UB04Sep2024_115522AM.ini
# preset_type = normal 
# preset_channel = mcu
# preset_value = 30.000000
# def_x = e
# def_y = detector
# col_headers = 
#   Pt.          h          k          l          e       time   detector    monitor        mcu focal_length         m1         m2   mcrystal       marc     mtrans     mfocus       ampl         dc       freq     output       temp     temp_2         s1         s2        sgl        sgu        bbb        bbl        bbr        bbt        bab        bal        bar        bat        stl        stu         a1         a2          q         ei         ef   ampl_out output_state        vti     sample
      1     2.0001    -0.4001    -0.0000    20.0022     25.544     40.000 194311.000     30.000    43.4765   -20.0773   -26.4548   120.0962    -0.1480    -3.0001   -54.2224     0.0000     0.0000     0.0000     1.0000   300.0000   300.0000   -50.0379    51.0771    -1.9790    -1.4500    20.0000    20.0000    10.0000    20.0000    26.0000    10.0000    16.0000    20.0000    -0.0005     0.0005   159.4164   -41.1662     3.1851    34.7022    14.7000     2.0000     1.0000   300.0510     0.000
      2     2.0000    -0.4000    -0.0000    19.7498     25.397     43.000 194311.000     30.000    43.6339   -20.0773   -26.5533   120.0962    -0.1480    -3.0001   -54.0105     0.0000     0.0000     0.0000     1.0000   300.0000   300.0000   -50.2041    51.3176    -1.9790    -1.4500    20.0000    20.0000    10.0000    20.0000    26.0000    10.0000    16.0000    20.0000    -0.0005     0.0005   159.4164   -41.1662     3.1850    34.4498    14.7000     2.0000     1.0000   299.9430     0.000
      3     2.0000    -0.4000    -0.0000    19.4998     25.452     47.000 194311.000     30.000    43.7931   -20.0773   -26.6519   120.0962    -0.1480    -3.0001   -53.7978     0.0000     0.0000     0.0000     1.0000   300.0000   300.0000   -50.3711    51.5590    -1.9790    -1.4500    20.0000    20.0000    10.0000    20.0000    26.0000    10.0000    16.0000    20.0000    -0.0005     0.0005   159.4164   -41.1662     3.1850    34.1998    14.7000     2.0000     1.0000   300.0080     0.000
      4     2.0001    -0.4000    -0.0000    19.2501     25.696     45.000 194311.000     30.000    43.9541   -20.0773   -26.7516   120.0962    -0.1480    -3.0001   -53.5845     0.0000     0.0000     0.0000     1.0000   300.0000   300.0000   -50.5370    51.8033    -1.9790    -1.4500    20.0000    20.0000    10.0000    20.0000    26.0000    10.0000    16.0000    20.0000    -0.0005     0.0005   159.4164   -41.1662     3.1851    33.9501    14.7000     2.0000     1.0000   299.9320     0.000
      5     2.0000    -0.4000    -0.0000    19.0003     25.854     45.000 194311.000     30.000    44.1168   -20.0773   -26.8524   120.0962    -0.1480    -3.0001   -53.3706     0.0000     0.0000     0.0000     1.0000   300.0000   300.0000   -50.7028    52.0428    -1.9790    -1.4500    20.0000    20.0000    10.0000    20.0000    26.0000    10.0000    16.0000    20.0000    -0.0005     0.0005   159.4164   -41.1662     3.1850    33.7003    14.7000     2.0000     1.0000   300.0000     0.000
      6     2.0000    -0.4000    -0.0000    18.7494     25.913     63.000 194311.000     30.000    44.2813   -20.0773   -26.9548   120.0962    -0.1480    -3.0001   -53.1560     0.0000     0.0000     0.0000     1.0000   300.0000   300.0000   -50.8687    52.2842    -1.9790    -1.4500    20.0000    20.0000    10.0000    20.0000    26.0000    10.0000    16.0000    20.0000    -0.0005     0.0005   159.4164   -41.1662     3.1849    33.4494    14.7000     2.0000     1.0000   299.9240     0.000
      7     2.0000    -0.4000    -0.0000    18.5002     26.056     58.000 194311.000     30.000    44.4478   -20.0773   -27.0577   120.0962    -0.1480    -3.0001   -52.9407     0.0000     0.0000     0.0000     1.0000   300.0000   300.0000   -51.0341    52.5285    -1.9790    -1.4500    20.0000    20.0000    10.0000    20.0000    26.0000    10.0000    16.0000    20.0000    -0.0005     0.0005   159.4164   -41.1662     3.1850    33.2002    14.7000     2.0000     1.0000   299.9950     0.000
      8     2.0001    -0.4000    -0.0000    18.2501     26.231     51.000 194311.000     30.000    44.6161   -20.0773   -27.1621   120.0962    -0.1480    -3.0001   -52.7248     0.0000     0.0000     0.0000     1.0000   300.0000   300.0000   -51.1992    52.7733    -1.9790    -1.4500    20.0000    20.0000    10.0000    20.0000    26.0000    10.0000    16.0000    20.0000    -0.0005     0.0005   159.4164   -41.1662     3.1851    32.9501    14.7000     2.0000     1.0000   299.9020     0.000
      9     2.0000    -0.4000    -0.0000    17.9999     26.420     63.000 194311.000     30.000    44.7863   -20.0773   -27.2678   120.0962    -0.1480    -3.0001   -52.5081     0.0000     0.0000     0.0000     1.0000   300.0000   300.0000   -51.3642    53.0151    -1.9790    -1.4500    20.0000    20.0000    10.0000    20.0000    26.0000    10.0000    16.0000    20.0000    -0.0005     0.0005   159.4164   -41.1662     3.1850    32.7000    14.7000     2.0000     1.0000   300.0020     0.000
     10     2.0000    -0.4000    -0.0000    17.7505     26.450     61.000 194311.000     30.000    44.9585   -20.0773   -27.3745   120.0962    -0.1480    -3.0001   -52.2908     0.0000     0.0000     0.0000     1.0000   300.0000   300.0000   -51.5291    53.2578    -1.9790    -1.4500    20.0000    20.0000    10.0000    20.0000    26.0000    10.0000    16.0000    20.0000    -0.0005     0.0005   159.4164   -41.1662     3.1849    32.4505    14.7000     2.0000     1.0000   299.9410     0.000
     11     2.0000    -0.4000    -0.0000    17.4997     26.780     74.000 194311.000     30.000    45.1326   -20.0773   -27.4829   120.0962    -0.1480    -3.0001   -52.0728     0.0000     0.0000     0.0000     1.0000   300.0000   300.0000   -51.6943    53.5040    -1.9790    -1.4500    20.0000    20.0000    10.0000    20.0000    26.0000    10.0000    16.0000    20.0000    -0.0005     0.0005   159.4164   -41.1662     3.1850    32.1997    14.7000     2.0000     1.0000   300.0010     0.000
     12     2.0000    -0.4000    -0.0000    17.2499     26.733     71.000 194311.000     30.000    45.3089   -20.0773   -27.5923   120.0962    -0.1480    -3.0001   -51.8540     0.0000     0.0000     0.0000     1.0000   300.0000   300.0000   -51.8582    53.7495    -1.9790    -1.4500    20.0000    20.0000    10.0000    20.0000    26.0000    10.0000    16.0000    20.0000    -0.0005     0.0005   159.4164   -41.1662     3.1850    31.9499    14.7000     2.0000     1.0000   299.9380     0.000
     13     2.0001    -0.4000    -0.0000    17.0001     26.937     54.000 194311.000     30.000    45.4872   -20.0773   -27.7029   120.0962    -0.1480    -3.0001   -51.6345     0.0000     0.0000     0.0000     1.0000   300.0000   300.0000   -52.0225    53.9985    -1.9790    -1.4500    20.0000    20.0000    10.0000    20.0000    26.0000    10.0000    16.0000    20.0000    -0.0005     0.0005   159.4164   -41.1662     3.1852    31.7001    14.7000     2.0000     1.0000   299.9910     0.000
     14     2.0000    -0.4000    -0.0000    16.7497     26.768     63.000 194311.000     30.000    45.6676   -20.0773   -27.8152   120.0962    -0.1480    -3.0001   -51.4143     0.0000     0.0000     0.0000     1.0000   300.0000   300.0000   -52.1868    54.2397    -1.9790    -1.4500    20.0000    20.0000    10.0000    20.0000    26.0000    10.0000    16.0000    20.0000    -0.0005     0.0005   159.4164   -41.1662     3.1849    31.4497    14.7000     2.0000     1.0000   299.9800     0.000
     15     2.0000    -0.4000    -0.0000    16.5002     26.958     49.000 194311.000     30.000    45.8503   -20.0773   -27.9285   120.0962    -0.1480    -3.0001   -51.1934     0.0000     0.0000     0.0000     1.0000   300.0000   300.0000   -52.3506    54.4877    -1.9790    -1.4500    20.0000    20.0000    10.0000    20.0000    26.0000    10.0000    16.0000    20.0000    -0.0005     0.0005   159.4164   -41.1662     3.1850    31.2002    14.7000     2.0000     1.0000   300.0080     0.000
     16     2.0000    -0.4000    -0.0000    16.2497     27.172     80.000 194311.000     30.000    46.0351   -20.0773   -28.0436   120.0962    -0.1480    -3.0001   -50.9717     0.0000     0.0000     0.0000     1.0000   300.0000   300.0000   -52.5143    54.7355    -1.9790    -1.4500    20.0000    20.0000    10.0000    20.0000    26.0000    10.0000    16.0000    20.0000    -0.0005     0.0005   159.4164   -41.1662     3.1850    30.9497    14.7000     2.0000     1.0000   300.0190     0.000
     17     2.0000    -0.4000    -0.0000    15.9998     27.143     61.000 194311.000     30.000    46.2221   -20.0773   -28.1598   120.0962    -0.1480    -3.0001   -50.7492     0.0000     0.0000     0.0000     1.0000   300.0000   300.0000   -52.6776    54.9844    -1.9790    -1.4500    20.0000    20.0000    10.0000    20.0000    26.0000    10.0000    16.0000    20.0000    -0.0005     0.0005   159.4164   -41.1662     3.1850    30.6998    14.7000     2.0000     1.0000   300.0080     0.000
     18     2.0000    -0.4000    -0.0000    15.7505     27.290     65.000 194311.000     30.000    46.4115   -20.0773   -28.2773   120.0962    -0.1480    -3.0001   -50.5260     0.0000     0.0000     0.0000     1.0000   300.0000   300.0000   -52.8415    55.2308    -1.9790    -1.4500    20.0000    20.0000    10.0000    20.0000    26.0000    10.0000    16.0000    20.0000    -0.0005     0.0005   159.4164   -41.1662     3.1850    30.4505    14.7000     2.0000     1.0000   300.0050     0.000
     19     2.0000    -0.4000    -0.0000    15.4997     27.324     64.000 194311.000     30.000    46.6032   -20.0773   -28.3969   120.0962    -0.1480    -3.0001   -50.3021     0.0000     0.0000     0.0000     1.0000   300.0000   300.0000   -53.0042    55.4796    -1.9790    -1.4500    20.0000    20.0000    10.0000    20.0000    26.0000    10.0000    16.0000    20.0000    -0.0005     0.0005   159.4164   -41.1662     3.1849    30.1997    14.7000     2.0000     1.0000   300.0120     0.000
     20     2.0000    -0.4000    -0.0000    15.2501     27.507     49.000 194311.000     30.000    46.7972   -20.0773   -28.5175   120.0962    -0.1480    -3.0001   -50.0773     0.0000     0.0000     0.0000     1.0000   300.0000   300.0000   -53.1675    55.7310    -1.9790    -1.4500    20.0000    20.0000    10.0000    20.0000    26.0000    10.0000    16.0000    20.0000    -0.0005     0.0005   159.4164   -41.1662     3.1850    29.9501    14.7000     2.0000     1.0000   300.0170     0.000
     21     2.0001    -0.4001    -0.0000    15.0003     27.452     55.000 194311.000     30.000    46.9938   -20.0773   -28.6397   120.0962    -0.1480    -3.0001   -49.8518     0.0000     0.0000     0.0000     1.0000   300.0000   300.0000   -53.3305    55.9849    -1.9790    -1.4500    20.0000    20.0000    10.0000    20.0000    26.0000    10.0000    16.0000    20.0000    -0.0005     0.0005   159.4164   -41.1662     3.1852    29.7003    14.7000     2.0000     1.0000   299.9840     0.000
     22     1.9999    -0.4000    -0.0000    14.7497     27.379     37.000 194311.000     30.000    47.1929   -20.0773   -28.7639   120.0962    -0.1480    -3.0001   -49.6254     0.0000     0.0000     0.0000     1.0000   300.0000   300.0000   -53.4928    56.2302    -1.9790    -1.4500    20.0000    20.0000    10.0000    20.0000    26.0000    10.0000    16.0000    20.0000    -0.0005     0.0005   159.4164   -41.1662     3.1849    29.4497    14.7000     2.0000     1.0000   300.0150     0.000
     23     2.0000    -0.4000    -0.0000    14.4999     27.211     35.000 194311.000     30.000    47.3944   -20.0773   -28.8893   120.0962    -0.1480    -3.0001   -49.3982     0.0000     0.0000     0.0000     1.0000   300.0000   300.0000   -53.6557    56.4836    -1.9790    -1.4500    20.0000    20.0000    10.0000    20.0000    26.0000    10.0000    16.0000    20.0000    -0.0005     0.0005   159.4164   -41.1662     3.1850    29.1999    14.7000     2.0000     1.0000   300.0040     0.000
     24     2.0000    -0.4000    -0.0000    14.2506     26.703     32.000 194311.000     30.000    47.5986   -20.0773   -29.0161   120.0962    -0.1480    -3.0001   -49.1702     0.0000     0.0000     0.0000     1.0000   300.0000   300.0000   -53.8176    56.7371    -1.9790    -1.4500    20.0000    20.0000    10.0000    20.0000    26.0000    10.0000    16.0000    20.0000    -0.0005     0.0005   159.4164   -41.1662     3.1851    28.9507    14.7000     2.0000     1.0000   300.0050     0.000
     25     2.0000    -0.4000    -0.0000    13.9994     26.276     44.000 194311.000     30.000    47.8055   -20.0773   -29.1457   120.0962    -0.1480    -3.0001   -48.9414     0.0000     0.0000     0.0000     1.0000   300.0000   300.0000   -53.9802    56.9916    -1.9790    -1.4500    20.0000    20.0000    10.0000    20.0000    26.0000    10.0000    16.0000    20.0000    -0.0005     0.0005   159.4164   -41.1662     3.1851    28.6994    14.7000     2.0000     1.0000   300.0060     0.000
     26     2.0000    -0.4000    -0.0000    13.7503     26.019     51.000 194311.000     30.000    48.0151   -20.0773   -29.2758   120.0962    -0.1480    -3.0001   -48.7117     0.0000     0.0000     0.0000     1.0000   300.0000   300.0000   -54.1421    57.2424    -1.9790    -1.4500    20.0000    20.0000    10.0000    20.0000    26.0000    10.0000    16.0000    20.0000    -0.0005     0.0005   159.4164   -41.1662     3.1850    28.4503    14.7000     2.0000     1.0000   300.0080     0.000
     27     2.0000    -0.4000    -0.0000    13.5004     25.794     26.000 194311.000     30.000    48.2274   -20.0773   -29.4082   120.0962    -0.1480    -3.0001   -48.4811     0.0000     0.0000     0.0000     1.0000   300.0000   300.0000   -54.3041    57.4983    -1.9790    -1.4500    20.0000    20.0000    10.0000    20.0000    26.0000    10.0000    16.0000    20.0000    -0.0005     0.0005   159.4164   -41.1662     3.1850    28.2004    14.7000     2.0000     1.0000   299.9970     0.000
     28     2.0000    -0.4000    -0.0000    13.2496     25.854     29.000 194311.000     30.000    48.4427   -20.0773   -29.5428   120.0962    -0.1480    -3.0001   -48.2497     0.0000     0.0000     0.0000     1.0000   300.0000   300.0000   -54.4656    57.7546    -1.9790    -1.4500    20.0000    20.0000    10.0000    20.0000    26.0000    10.0000    16.0000    20.0000    -0.0005     0.0005   159.4164   -41.1662     3.1850    27.9496    14.7000     2.0000     1.0000   300.0100     0.000
     29     2.0001    -0.4000    -0.0000    13.0000     25.971     29.000 194311.000     30.000    48.6608   -20.0773   -29.6786   120.0962    -0.1480    -3.0001   -48.0174     0.0000     0.0000     0.0000     1.0000   300.0000   300.0000   -54.6271    58.0133    -1.9790    -1.4500    20.0000    20.0000    10.0000    20.0000    26.0000    10.0000    16.0000    20.0000    -0.0005     0.0005   159.4164   -41.1662     3.1851    27.7000    14.7000     2.0000     1.0000   300.0030     0.000
     30     2.0000    -0.4000    -0.0000    12.7500     26.168     35.000 194311.000     30.000    48.8819   -20.0773   -29.8166   120.0962    -0.1480    -3.0001   -47.7842     0.0000     0.0000     0.0000     1.0000   300.0000   300.0000   -54.7890    58.2672    -1.9790    -1.4500    20.0000    20.0000    10.0000    20.0000    26.0000    10.0000    16.0000    20.0000    -0.0005     0.0005   159.4164   -41.1662     3.1849    27.4500    14.7000     2.0000     1.0000   300.0210     0.000
     31     2.0000    -0.4000    -0.0000    12.4999     26.595     23.000 194311.000     30.000    49.1060   -20.0773   -29.9566   120.0962    -0.1480    -3.0001   -47.5501     0.0000     0.0000     0.0000     1.0000   300.0000   300.0000   -54.9498    58.5269    -1.9790    -1.4500    20.0000    20.0000    10.0000    20.0000    26.0000    10.0000    16.0000    20.0000    -0.0005     0.0005   159.4164   -41.1662     3.1850    27.1999    14.7000     2.0000     1.0000   299.9970     0.000
     32     2.0000    -0.4000    -0.0000    12.2504     27.029     25.000 194311.000     30.000    49.3332   -20.0773   -30.0982   120.0962    -0.1480    -3.0001   -47.3151     0.0000     0.0000     0.0000     1.0000   300.0000   300.0000   -55.1112    58.7869    -1.9790    -1.4500    20.0000    20.0000    10.0000    20.0000    26.0000    10.0000    16.0000    20.0000    -0.0005     0.0005   159.4164   -41.1662     3.1851    26.9504    14.7000     2.0000     1.0000   300.0030     0.000
     33     1.9999    -0.4000    -0.0000    11.9999     27.160     33.000 194311.000     30.000    49.5636   -20.0773   -30.2424   120.0962    -0.1480    -3.0001   -47.0791     0.0000     0.0000     0.0000     1.0000   300.0000   300.0000   -55.2721    59.0440    -1.9790    -1.4500    20.0000    20.0000    10.0000    20.0000    26.0000    10.0000    16.0000    20.0000    -0.0005     0.0005   159.4164   -41.1662     3.1849    26.6999    14.7000     2.0000     1.0000   299.9440     0.000
     34     2.0000    -0.4000    -0.0000    11.7500     27.337     26.000 194311.000     30.000    49.7973   -20.0773   -30.3884   120.0962    -0.1480    -3.0001   -46.8422     0.0000     0.0000     0.0000     1.0000   300.0000   300.0000   -55.4327    59.3078    -1.9790    -1.4500    20.0000    20.0000    10.0000    20.0000    26.0000    10.0000    16.0000    20.0000    -0.0005     0.0005   159.4164   -41.1662     3.1850    26.4500    14.7000     2.0000     1.0000   300.0070     0.000
     35     2.0000    -0.4000    -0.0000    11.5002     27.258     36.000 194311.000     30.000    50.0343   -20.0773   -30.5364   120.0962    -0.1480    -3.0001   -46.6044     0.0000     0.0000     0.0000     1.0000   300.0000   300.0000   -55.5937    59.5700    -1.9790    -1.4500    20.0000    20.0000    10.0000    20.0000    26.0000    10.0000    16.0000    20.0000    -0.0005     0.0005   159.4164   -41.1662     3.1850    26.2002    14.7000     2.0000     1.0000   299.9430     0.000
     36     2.0000    -0.4000    -0.0000    11.2502     27.151     25.000 194311.000     30.000    50.2748   -20.0773   -30.6868   120.0962    -0.1480    -3.0001   -46.3655     0.0000     0.0000     0.0000     1.0000   300.0000   300.0000   -55.7541    59.8310    -1.9790    -1.4500    20.0000    20.0000    10.0000    20.0000    26.0000    10.0000    16.0000    20.0000    -0.0005     0.0005   159.4164   -41.1662     3.1849    25.9502    14.7000     2.0000     1.0000   300.0040     0.000
     37     2.0000    -0.4000    -0.0000    10.9999     26.909     34.000 194311.000     30.000    50.5187   -20.0773   -30.8395   120.0962    -0.1480    -3.0001   -46.1257     0.0000     0.0000     0.0000     1.0000   300.0000   300.0000   -55.9143    60.0964    -1.9790    -1.4500    20.0000    20.0000    10.0000    20.0000    26.0000    10.0000    16.0000    20.0000    -0.0005     0.0005   159.4164   -41.1662     3.1850    25.6999    14.7000     2.0000     1.0000   299.9300     0.000
