# scan = 141
# date = 9/7/2024
# time = 1:46:13 PM
# proposal = 32905
# experiment = Effects of electric field on phonon dispersion and lifetimes of poled PMN-30PT
# experiment_number = 812
# command = scan h 2.5 k 0.6 l 0 e 15 0.5 0.25 preset mcu 30
# builtin_command = scan h 2.5 k 0.6 l 0 e 15 0.5 0.25 preset mcu 30
# users = George Yumnam, Michael Manley, Puspa Upreti, Raphael Hermann, SHAOFEI WANG
# local_contact = Songxue Chi
# scan_title = (2.5,0.6,0) X to M transverse mode scan at E 400 V
# monochromator = PG002
# analyzer = Pg002
# sense = -+-
# collimation = 48-40-40-120
# samplename = PMN-30PT
# sampletype = crystal
# samplemosaic = 30.000000
# latticeconstants = 4.023634,4.023634,4.023634,90.000000,90.000000,90.000000
# ubmatrix = -0.008055,-0.248252,-0.008588,-0.248328,0.007840,0.006285,-0.006007,0.008785,-0.248304
# mode = 0
# plane_normal = 0.034555,-0.025290,0.999083
# ubconf = UB04Sep2024_115522AM.ini
# preset_type = normal 
# preset_channel = mcu
# preset_value = 30.000000
# def_x = e
# def_y = detector
# col_headers = 
#   Pt.          h          k          l          e       time   detector    monitor        mcu focal_length         m1         m2   mcrystal       marc     mtrans     mfocus       ampl         dc       freq     output       temp     temp_2         s1         s2        sgl        sgu        bbb        bbl        bbr        bbt        bab        bal        bar        bat        stl        stu         a1         a2          q         ei         ef   ampl_out output_state        vti     sample
      1     2.5001     0.6000    -0.0001    15.0019     27.378     36.000 194311.000     30.000    46.9938   -20.0773   -28.6389   120.0962    -0.1480    -3.0001   -49.8518     0.0000   400.0000     0.0000     1.0000   300.0000   300.0000   -24.4394    74.7397    -1.9790    -1.4485    20.0000    20.0000    10.0000    20.0000    26.0000    10.0000    16.0000    20.0000    -0.0005     0.0005   159.4164   -41.1662     4.0150    29.7019    14.7000     2.0000     1.0000   300.0450     0.000
      2     2.5000     0.6000    -0.0001    14.7496     27.116     32.000 194311.000     30.000    47.1929   -20.0773   -28.7640   120.0962    -0.1480    -3.0001   -49.6254     0.0000   400.0000     0.0000     1.0000   300.0000   300.0000   -24.5045    75.0281    -1.9790    -1.4485    20.0000    20.0000    10.0000    20.0000    26.0000    10.0000    16.0000    20.0000    -0.0005     0.0005   159.4164   -41.1662     4.0148    29.4496    14.7000     2.0000     1.0000   300.0480     0.000
      3     2.5000     0.6000    -0.0001    14.4999     26.751     37.000 194311.000     30.000    47.3944   -20.0773   -28.8893   120.0962    -0.1480    -3.0001   -49.3982     0.0000   400.0000     0.0000     1.0000   300.0000   300.0000   -24.5694    75.3214    -1.9790    -1.4485    20.0000    20.0000    10.0000    20.0000    26.0000    10.0000    16.0000    20.0000    -0.0005     0.0005   159.4164   -41.1662     4.0148    29.1999    14.7000     2.0000     1.0000   300.0130     0.000
      4     2.5000     0.6000    -0.0001    14.2506     26.337     32.000 194311.000     30.000    47.5986   -20.0773   -29.0161   120.0962    -0.1480    -3.0001   -49.1702     0.0000   400.0000     0.0000     1.0000   300.0000   300.0000   -24.6331    75.6149    -1.9790    -1.4485    20.0000    20.0000    10.0000    20.0000    26.0000    10.0000    16.0000    20.0000    -0.0005     0.0005   159.4164   -41.1662     4.0148    28.9507    14.7000     2.0000     1.0000   300.0160     0.000
      5     2.5000     0.6000    -0.0001    13.9994     25.943     26.000 194311.000     30.000    47.8055   -20.0773   -29.1457   120.0962    -0.1480    -3.0001   -48.9414     0.0000   400.0000     0.0000     1.0000   300.0000   300.0000   -24.6962    75.9111    -1.9790    -1.4485    20.0000    20.0000    10.0000    20.0000    26.0000    10.0000    16.0000    20.0000    -0.0005     0.0005   159.4164   -41.1662     4.0148    28.6994    14.7000     2.0000     1.0000   299.9950     0.000
      6     2.5000     0.6000    -0.0001    13.7503     25.491     38.000 194311.000     30.000    48.0151   -20.0773   -29.2758   120.0962    -0.1480    -3.0001   -48.7117     0.0000   400.0000     0.0000     1.0000   300.0000   300.0000   -24.7586    76.2092    -1.9790    -1.4485    20.0000    20.0000    10.0000    20.0000    26.0000    10.0000    16.0000    20.0000    -0.0005     0.0005   159.4164   -41.1662     4.0148    28.4503    14.7000     2.0000     1.0000   300.0030     0.000
      7     2.5000     0.6000    -0.0001    13.5004     25.433     29.000 194311.000     30.000    48.2274   -20.0773   -29.4082   120.0962    -0.1480    -3.0001   -48.4811     0.0000   400.0000     0.0000     1.0000   300.0000   300.0000   -24.8196    76.5084    -1.9790    -1.4485    20.0000    20.0000    10.0000    20.0000    26.0000    10.0000    16.0000    20.0000    -0.0005     0.0005   159.4164   -41.1662     4.0148    28.2004    14.7000     2.0000     1.0000   299.9510     0.000
      8     2.5000     0.6000    -0.0001    13.2496     25.489     36.000 194311.000     30.000    48.4427   -20.0773   -29.5428   120.0962    -0.1480    -3.0001   -48.2497     0.0000   400.0000     0.0000     1.0000   300.0000   300.0000   -24.8803    76.8115    -1.9790    -1.4485    20.0000    20.0000    10.0000    20.0000    26.0000    10.0000    16.0000    20.0000    -0.0005     0.0005   159.4164   -41.1662     4.0148    27.9496    14.7000     2.0000     1.0000   299.9810     0.000
      9     2.5000     0.6000    -0.0001    13.0000     25.562     33.000 194311.000     30.000    48.6608   -20.0773   -29.6786   120.0962    -0.1480    -3.0001   -48.0174     0.0000   400.0000     0.0000     1.0000   300.0000   300.0000   -24.9399    77.1147    -1.9790    -1.4485    20.0000    20.0000    10.0000    20.0000    26.0000    10.0000    16.0000    20.0000    -0.0005     0.0005   159.4164   -41.1662     4.0148    27.7000    14.7000     2.0000     1.0000   300.0150     0.000
     10     2.5001     0.6000    -0.0001    12.7500     25.964     41.000 194311.000     30.000    48.8819   -20.0773   -29.8166   120.0962    -0.1480    -3.0001   -47.7842     0.0000   400.0000     0.0000     1.0000   300.0000   300.0000   -24.9989    77.4218    -1.9790    -1.4485    20.0000    20.0000    10.0000    20.0000    26.0000    10.0000    16.0000    20.0000    -0.0005     0.0005   159.4164   -41.1662     4.0149    27.4500    14.7000     2.0000     1.0000   300.0160     0.000
     11     2.5000     0.6000    -0.0001    12.4998     26.275     26.000 194311.000     30.000    49.1060   -20.0773   -29.9566   120.0962    -0.1480    -3.0001   -47.5501     0.0000   400.0000     0.0000     1.0000   300.0000   300.0000   -25.0561    77.7287    -1.9790    -1.4485    20.0000    20.0000    10.0000    20.0000    26.0000    10.0000    16.0000    20.0000    -0.0005     0.0005   159.4164   -41.1662     4.0148    27.1998    14.7000     2.0000     1.0000   300.0130     0.000
     12     2.5000     0.6000    -0.0001    12.2504     26.520     38.000 194311.000     30.000    49.3332   -20.0773   -30.0982   120.0962    -0.1480    -3.0001   -47.3151     0.0000   400.0000     0.0000     1.0000   300.0000   300.0000   -25.1134    78.0375    -1.9790    -1.4485    20.0000    20.0000    10.0000    20.0000    26.0000    10.0000    16.0000    20.0000    -0.0005     0.0005   159.4164   -41.1662     4.0148    26.9504    14.7000     2.0000     1.0000   300.0000     0.000
     13     2.5000     0.6000    -0.0001    11.9997     26.858     44.000 194311.000     30.000    49.5636   -20.0773   -30.2425   120.0962    -0.1480    -3.0001   -47.0791     0.0000   400.0000     0.0000     1.0000   300.0000   300.0000   -25.1690    78.3513    -1.9790    -1.4485    20.0000    20.0000    10.0000    20.0000    26.0000    10.0000    16.0000    20.0000    -0.0005     0.0005   159.4164   -41.1662     4.0148    26.6997    14.7000     2.0000     1.0000   300.0140     0.000
     14     2.5000     0.6000    -0.0001    11.7500     26.939     29.000 194311.000     30.000    49.7973   -20.0773   -30.3884   120.0962    -0.1480    -3.0001   -46.8422     0.0000   400.0000     0.0000     1.0000   300.0000   300.0000   -25.2237    78.6643    -1.9790    -1.4485    20.0000    20.0000    10.0000    20.0000    26.0000    10.0000    16.0000    20.0000    -0.0005     0.0005   159.4164   -41.1662     4.0147    26.4500    14.7000     2.0000     1.0000   299.9690     0.000
     15     2.5001     0.6000    -0.0001    11.5001     26.863     43.000 194311.000     30.000    50.0343   -20.0773   -30.5364   120.0962    -0.1480    -3.0001   -46.6044     0.0000   400.0000     0.0000     1.0000   300.0000   300.0000   -25.2773    78.9863    -1.9790    -1.4485    20.0000    20.0000    10.0000    20.0000    26.0000    10.0000    16.0000    20.0000    -0.0005     0.0005   159.4164   -41.1662     4.0149    26.2001    14.7000     2.0000     1.0000   300.0070     0.000
     16     2.5000     0.6000    -0.0001    11.2501     26.519     48.000 194311.000     30.000    50.2748   -20.0773   -30.6868   120.0962    -0.1480    -3.0001   -46.3655     0.0000   400.0000     0.0000     1.0000   300.0000   300.0000   -25.3304    79.3029    -1.9790    -1.4485    20.0000    20.0000    10.0000    20.0000    26.0000    10.0000    16.0000    20.0000    -0.0005     0.0005   159.4164   -41.1662     4.0148    25.9501    14.7000     2.0000     1.0000   300.0030     0.000
     17     2.5000     0.6000    -0.0001    11.0000     26.378     54.000 194311.000     30.000    50.5187   -20.0773   -30.8395   120.0962    -0.1480    -3.0001   -46.1257     0.0000   400.0000     0.0000     1.0000   300.0000   300.0000   -25.3816    79.6255    -1.9790    -1.4485    20.0000    20.0000    10.0000    20.0000    26.0000    10.0000    16.0000    20.0000    -0.0005     0.0005   159.4164   -41.1662     4.0148    25.7000    14.7000     2.0000     1.0000   300.0080     0.000
     18     2.5000     0.6000    -0.0001    10.7500     26.226     49.000 194311.000     30.000    50.7662   -20.0773   -30.9943   120.0962    -0.1480    -3.0001   -45.8849     0.0000   400.0000     0.0000     1.0000   300.0000   300.0000   -25.4322    79.9511    -1.9790    -1.4485    20.0000    20.0000    10.0000    20.0000    26.0000    10.0000    16.0000    20.0000    -0.0005     0.0005   159.4164   -41.1662     4.0148    25.4501    14.7000     2.0000     1.0000   300.0140     0.000
     19     2.5000     0.6000    -0.0001    10.5002     26.080     41.000 194311.000     30.000    51.0174   -20.0773   -31.1514   120.0962    -0.1480    -3.0001   -45.6430     0.0000   400.0000     0.0000     1.0000   300.0000   300.0000   -25.4815    80.2767    -1.9790    -1.4485    20.0000    20.0000    10.0000    20.0000    26.0000    10.0000    16.0000    20.0000    -0.0005     0.0005   159.4164   -41.1662     4.0148    25.2003    14.7000     2.0000     1.0000   299.9170     0.000
     20     2.5000     0.6000    -0.0001    10.2503     26.126     58.000 194311.000     30.000    51.2724   -20.0773   -31.3111   120.0962    -0.1480    -3.0001   -45.4002     0.0000   400.0000     0.0000     1.0000   300.0000   300.0000   -25.5296    80.6092    -1.9790    -1.4485    20.0000    20.0000    10.0000    20.0000    26.0000    10.0000    16.0000    20.0000    -0.0005     0.0005   159.4164   -41.1662     4.0148    24.9503    14.7000     2.0000     1.0000   300.0060     0.000
     21     2.5000     0.6000    -0.0001     9.9998     26.470     47.000 194311.000     30.000    51.5312   -20.0773   -31.4735   120.0962    -0.1480    -3.0001   -45.1562     0.0000   400.0000     0.0000     1.0000   300.0000   300.0000   -25.5764    80.9422    -1.9790    -1.4485    20.0000    20.0000    10.0000    20.0000    26.0000    10.0000    16.0000    20.0000    -0.0005     0.0005   159.4164   -41.1662     4.0148    24.6998    14.7000     2.0000     1.0000   300.0100     0.000
     22     2.5000     0.6000    -0.0001     9.7498     26.900     61.000 194311.000     30.000    51.7940   -20.0773   -31.6382   120.0962    -0.1480    -3.0001   -44.9112     0.0000   400.0000     0.0000     1.0000   300.0000   300.0000   -25.6221    81.2761    -1.9790    -1.4485    20.0000    20.0000    10.0000    20.0000    26.0000    10.0000    16.0000    20.0000    -0.0005     0.0005   159.4164   -41.1662     4.0147    24.4498    14.7000     2.0000     1.0000   300.0020     0.000
     23     2.5000     0.6000    -0.0001     9.4998     27.261     67.000 194311.000     30.000    52.0609   -20.0773   -31.8055   120.0962    -0.1480    -3.0001   -44.6652     0.0000   400.0000     0.0000     1.0000   300.0000   300.0000   -25.6661    81.6174    -1.9790    -1.4485    20.0000    20.0000    10.0000    20.0000    26.0000    10.0000    16.0000    20.0000    -0.0005     0.0005   159.4164   -41.1662     4.0149    24.1998    14.7000     2.0000     1.0000   300.0250     0.000
     24     2.5000     0.6000    -0.0001     9.2502     27.428     55.000 194311.000     30.000    52.3319   -20.0773   -31.9752   120.0962    -0.1480    -3.0001   -44.4180     0.0000   400.0000     0.0000     1.0000   300.0000   300.0000   -25.7095    81.9578    -1.9790    -1.4485    20.0000    20.0000    10.0000    20.0000    26.0000    10.0000    16.0000    20.0000    -0.0005     0.0005   159.4164   -41.1662     4.0148    23.9503    14.7000     2.0000     1.0000   300.0040     0.000
     25     2.5000     0.6000    -0.0001     9.0000     27.325     58.000 194311.000     30.000    52.6071   -20.0773   -32.1481   120.0962    -0.1480    -3.0001   -44.1697     0.0000   400.0000     0.0000     1.0000   300.0000   300.0000   -25.7508    82.3023    -1.9790    -1.4485    20.0000    20.0000    10.0000    20.0000    26.0000    10.0000    16.0000    20.0000    -0.0005     0.0005   159.4164   -41.1662     4.0148    23.7000    14.7000     2.0000     1.0000   300.0110     0.000
     26     2.5000     0.6000    -0.0001     8.7500     26.694     62.000 194311.000     30.000    52.8868   -20.0773   -32.3237   120.0962    -0.1480    -3.0001   -43.9203     0.0000   400.0000     0.0000     1.0000   300.0000   300.0000   -25.7909    82.6485    -1.9790    -1.4485    20.0000    20.0000    10.0000    20.0000    26.0000    10.0000    16.0000    20.0000    -0.0005     0.0005   159.4164   -41.1662     4.0147    23.4500    14.7000     2.0000     1.0000   299.9900     0.000
     27     2.5000     0.6000    -0.0001     8.5001     26.009     54.000 194311.000     30.000    53.1710   -20.0773   -32.5021   120.0962    -0.1480    -3.0001   -43.6697     0.0000   400.0000     0.0000     1.0000   300.0000   300.0000   -25.8296    83.0023    -1.9790    -1.4485    20.0000    20.0000    10.0000    20.0000    26.0000    10.0000    16.0000    20.0000    -0.0005     0.0005   159.4164   -41.1662     4.0148    23.2001    14.7000     2.0000     1.0000   300.0150     0.000
     28     2.5000     0.6000    -0.0001     8.2498     25.212     57.000 194311.000     30.000    53.4598   -20.0773   -32.6838   120.0962    -0.1480    -3.0001   -43.4180     0.0000   400.0000     0.0000     1.0000   300.0000   300.0000   -25.8666    83.3564    -1.9790    -1.4485    20.0000    20.0000    10.0000    20.0000    26.0000    10.0000    16.0000    20.0000    -0.0005     0.0005   159.4164   -41.1662     4.0148    22.9498    14.7000     2.0000     1.0000   300.0200     0.000
     29     2.5000     0.6000    -0.0001     8.0000     24.365     52.000 194311.000     30.000    53.7534   -20.0773   -32.8682   120.0962    -0.1480    -3.0001   -43.1651     0.0000   400.0000     0.0000     1.0000   300.0000   300.0000   -25.9023    83.7141    -1.9790    -1.4485    20.0000    20.0000    10.0000    20.0000    26.0000    10.0000    16.0000    20.0000    -0.0005     0.0005   159.4164   -41.1662     4.0148    22.7000    14.7000     2.0000     1.0000   300.0310     0.000
     30     2.5000     0.6000    -0.0001     7.7501     24.070     63.000 194311.000     30.000    54.0519   -20.0773   -33.0559   120.0962    -0.1480    -3.0001   -42.9109     0.0000   400.0000     0.0000     1.0000   300.0000   300.0000   -25.9363    84.0739    -1.9790    -1.4485    20.0000    20.0000    10.0000    20.0000    26.0000    10.0000    16.0000    20.0000    -0.0005     0.0005   159.4164   -41.1662     4.0147    22.4501    14.7000     2.0000     1.0000   300.0070     0.000
     31     2.5000     0.6000    -0.0001     7.4998     23.942     70.000 194311.000     30.000    54.3554   -20.0773   -33.2471   120.0962    -0.1480    -3.0001   -42.6556     0.0000   400.0000     0.0000     1.0000   300.0000   300.0000   -25.9686    84.4391    -1.9790    -1.4485    20.0000    20.0000    10.0000    20.0000    26.0000    10.0000    16.0000    20.0000    -0.0005     0.0005   159.4164   -41.1662     4.0147    22.1998    14.7000     2.0000     1.0000   300.0290     0.000
     32     2.5000     0.6000    -0.0001     7.2504     23.902     49.000 194311.000     30.000    54.6640   -20.0773   -33.4410   120.0962    -0.1480    -3.0001   -42.3989     0.0000   400.0000     0.0000     1.0000   300.0000   300.0000   -25.9991    84.8094    -1.9790    -1.4485    20.0000    20.0000    10.0000    20.0000    26.0000    10.0000    16.0000    20.0000    -0.0005     0.0005   159.4164   -41.1662     4.0148    21.9504    14.7000     2.0000     1.0000   300.0310     0.000
     33     2.5001     0.6000    -0.0001     6.9996     23.861     66.000 194311.000     30.000    54.9780   -20.0773   -33.6393   120.0962    -0.1480    -3.0001   -42.1410     0.0000   400.0000     0.0000     1.0000   300.0000   300.0000   -26.0275    85.1859    -1.9790    -1.4485    20.0000    20.0000    10.0000    20.0000    26.0000    10.0000    16.0000    20.0000    -0.0005     0.0005   159.4164   -41.1662     4.0149    21.6996    14.7000     2.0000     1.0000   299.9400     0.000
     34     2.5000     0.6000    -0.0001     6.7502     23.936     70.000 194311.000     30.000    55.2975   -20.0773   -33.8402   120.0962    -0.1480    -3.0001   -41.8818     0.0000   400.0000     0.0000     1.0000   300.0000   300.0000   -26.0548    85.5592    -1.9790    -1.4485    20.0000    20.0000    10.0000    20.0000    26.0000    10.0000    16.0000    20.0000    -0.0005     0.0005   159.4164   -41.1662     4.0148    21.4502    14.7000     2.0000     1.0000   300.0180     0.000
     35     2.5000     0.6000    -0.0001     6.4999     24.167     72.000 194311.000     30.000    55.6225   -20.0773   -34.0455   120.0962    -0.1480    -3.0001   -41.6214     0.0000   400.0000     0.0000     1.0000   300.0000   300.0000   -26.0796    85.9397    -1.9790    -1.4485    20.0000    20.0000    10.0000    20.0000    26.0000    10.0000    16.0000    20.0000    -0.0005     0.0005   159.4164   -41.1662     4.0148    21.1999    14.7000     2.0000     1.0000   299.9940     0.000
     36     2.5000     0.6000    -0.0001     6.2501     24.388     59.000 194311.000     30.000    55.9535   -20.0773   -34.2541   120.0962    -0.1480    -3.0001   -41.3595     0.0000   400.0000     0.0000     1.0000   300.0000   300.0000   -26.1024    86.3245    -1.9790    -1.4485    20.0000    20.0000    10.0000    20.0000    26.0000    10.0000    16.0000    20.0000    -0.0005     0.0005   159.4164   -41.1662     4.0148    20.9501    14.7000     2.0000     1.0000   300.0140     0.000
     37     2.5000     0.6000    -0.0001     6.0000     24.809     56.000 194311.000     30.000    56.2903   -20.0773   -34.4667   120.0962    -0.1480    -3.0001   -41.0963     0.0000   400.0000     0.0000     1.0000   300.0000   300.0000   -26.1238    86.7137    -1.9790    -1.4485    20.0000    20.0000    10.0000    20.0000    26.0000    10.0000    16.0000    20.0000    -0.0005     0.0005   159.4164   -41.1662     4.0148    20.7001    14.7000     2.0000     1.0000   299.9990     0.000
