# scan = 51
# date = 9/5/2024
# time = 7:31:17 AM
# proposal = 32905
# experiment = Effects of electric field on phonon dispersion and lifetimes of poled PMN-30PT
# experiment_number = 812
# command = scan h 1.5 k 0.25 l 0 e 15 0 0.25 preset mcu 30
# builtin_command = scan h 1.5 k 0.25 l 0 e 15 0 0.25 preset mcu 30
# users = George Yumnam, Michael Manley, Puspa Upreti, Raphael Hermann, SHAOFEI WANG
# local_contact = Songxue Chi
# scan_title = h1.5 k0.25 l0 scans
# monochromator = PG002
# analyzer = Pg002
# sense = -+-
# collimation = 48-40-40-120
# samplename = PMN-30PT
# sampletype = crystal
# samplemosaic = 30.000000
# latticeconstants = 4.023634,4.023634,4.023634,90.000000,90.000000,90.000000
# ubmatrix = -0.008055,-0.248252,-0.008588,-0.248328,0.007840,0.006285,-0.006007,0.008785,-0.248304
# mode = 0
# plane_normal = 0.034555,-0.025290,0.999083
# ubconf = UB04Sep2024_115522AM.ini
# preset_type = normal 
# preset_channel = mcu
# preset_value = 30.000000
# def_x = e
# def_y = detector
# col_headers = 
#   Pt.          h          k          l          e       time   detector    monitor        mcu focal_length         m1         m2   mcrystal       marc     mtrans     mfocus       ampl         dc       freq     output       temp     temp_2         s1         s2        sgl        sgu        bbb        bbl        bbr        bbt        bab        bal        bar        bat        stl        stu         a1         a2          q         ei         ef   ampl_out output_state        vti     sample
      1     1.4999     0.2499    -0.0000    15.0017     27.484     24.000 194311.000     30.000    46.9938   -20.0773   -28.6390   120.0962    -0.1480    -3.0001   -49.8518     0.0000     0.0000     0.0000     1.0000   300.0000   300.0000   -32.9356    38.4708    -1.9790    -1.4485    20.0000    20.0000    10.0000    20.0000    26.0000    10.0000    16.0000    20.0000    -0.0005     0.0005   159.4164   -41.1662     2.3745    29.7017    14.7000     2.0000     1.0000   300.0380     0.000
      2     1.5000     0.2500    -0.0000    14.7496     27.276     15.000 194311.000     30.000    47.1929   -20.0773   -28.7640   120.0962    -0.1480    -3.0001   -49.6254     0.0000     0.0000     0.0000     1.0000   300.0000   300.0000   -33.2395    38.7241    -1.9790    -1.4485    20.0000    20.0000    10.0000    20.0000    26.0000    10.0000    16.0000    20.0000    -0.0005     0.0005   159.4164   -41.1662     2.3746    29.4496    14.7000     2.0000     1.0000   299.9390     0.000
      3     1.5000     0.2500    -0.0000    14.4997     26.922     29.000 194311.000     30.000    47.3944   -20.0773   -28.8894   120.0962    -0.1480    -3.0001   -49.3982     0.0000     0.0000     0.0000     1.0000   300.0000   300.0000   -33.5425    38.9725    -1.9790    -1.4485    20.0000    20.0000    10.0000    20.0000    26.0000    10.0000    16.0000    20.0000    -0.0005     0.0005   159.4164   -41.1662     2.3747    29.1997    14.7000     2.0000     1.0000   300.0130     0.000
      4     1.5001     0.2500    -0.0000    14.2506     26.563     24.000 194311.000     30.000    47.5986   -20.0773   -29.0161   120.0962    -0.1480    -3.0001   -49.1702     0.0000     0.0000     0.0000     1.0000   300.0000   300.0000   -33.8459    39.2192    -1.9790    -1.4485    20.0000    20.0000    10.0000    20.0000    26.0000    10.0000    16.0000    20.0000    -0.0005     0.0005   159.4164   -41.1662     2.3748    28.9507    14.7000     2.0000     1.0000   299.9480     0.000
      5     1.4999     0.2500    -0.0000    13.9994     26.206     12.000 194311.000     30.000    47.8055   -20.0773   -29.1456   120.0962    -0.1480    -3.0001   -48.9414     0.0000     0.0000     0.0000     1.0000   300.0000   300.0000   -34.1491    39.4615    -1.9790    -1.4485    20.0000    20.0000    10.0000    20.0000    26.0000    10.0000    16.0000    20.0000    -0.0005     0.0005   159.4164   -41.1662     2.3746    28.6995    14.7000     2.0000     1.0000   300.0210     0.000
      6     1.5000     0.2500    -0.0000    13.7503     25.909     16.000 194311.000     30.000    48.0151   -20.0773   -29.2758   120.0962    -0.1480    -3.0001   -48.7117     0.0000     0.0000     0.0000     1.0000   300.0000   300.0000   -34.4521    39.7088    -1.9790    -1.4485    20.0000    20.0000    10.0000    20.0000    26.0000    10.0000    16.0000    20.0000    -0.0005     0.0005   159.4164   -41.1662     2.3747    28.4503    14.7000     2.0000     1.0000   300.0190     0.000
      7     1.5000     0.2500    -0.0000    13.5004     25.642     19.000 194311.000     30.000    48.2274   -20.0773   -29.4082   120.0962    -0.1480    -3.0001   -48.4811     0.0000     0.0000     0.0000     1.0000   300.0000   300.0000   -34.7553    39.9533    -1.9790    -1.4485    20.0000    20.0000    10.0000    20.0000    26.0000    10.0000    16.0000    20.0000    -0.0005     0.0005   159.4164   -41.1662     2.3747    28.2004    14.7000     2.0000     1.0000   300.0080     0.000
      8     1.5001     0.2500    -0.0000    13.2495     25.645     16.000 194311.000     30.000    48.4427   -20.0773   -29.5429   120.0962    -0.1480    -3.0001   -48.2497     0.0000     0.0000     0.0000     1.0000   300.0000   300.0000   -35.0586    40.2001    -1.9790    -1.4485    20.0000    20.0000    10.0000    20.0000    26.0000    10.0000    16.0000    20.0000    -0.0005     0.0005   159.4164   -41.1662     2.3748    27.9495    14.7000     2.0000     1.0000   300.0240     0.000
      9     1.5000     0.2500    -0.0000    13.0000     25.863     20.000 194311.000     30.000    48.6608   -20.0773   -29.6786   120.0962    -0.1480    -3.0001   -48.0174     0.0000     0.0000     0.0000     1.0000   300.0000   300.0000   -35.3616    40.4407    -1.9790    -1.4485    20.0000    20.0000    10.0000    20.0000    26.0000    10.0000    16.0000    20.0000    -0.0005     0.0005   159.4164   -41.1662     2.3746    27.7000    14.7000     2.0000     1.0000   300.0020     0.000
     10     1.5000     0.2500    -0.0000    12.7500     26.296     14.000 194311.000     30.000    48.8819   -20.0773   -29.8166   120.0962    -0.1480    -3.0001   -47.7842     0.0000     0.0000     0.0000     1.0000   300.0000   300.0000   -35.6651    40.6842    -1.9790    -1.4485    20.0000    20.0000    10.0000    20.0000    26.0000    10.0000    16.0000    20.0000    -0.0005     0.0005   159.4164   -41.1662     2.3746    27.4500    14.7000     2.0000     1.0000   300.0280     0.000
     11     1.5000     0.2500    -0.0000    12.5001     26.671     16.000 194311.000     30.000    49.1060   -20.0773   -29.9565   120.0962    -0.1480    -3.0001   -47.5501     0.0000     0.0000     0.0000     1.0000   300.0000   300.0000   -35.9690    40.9288    -1.9790    -1.4485    20.0000    20.0000    10.0000    20.0000    26.0000    10.0000    16.0000    20.0000    -0.0005     0.0005   159.4164   -41.1662     2.3747    27.2001    14.7000     2.0000     1.0000   300.0120     0.000
     12     1.5001     0.2500    -0.0000    12.2503     26.983     10.000 194311.000     30.000    49.3332   -20.0773   -30.0982   120.0962    -0.1480    -3.0001   -47.3151     0.0000     0.0000     0.0000     1.0000   300.0000   300.0000   -36.2725    41.1725    -1.9790    -1.4485    20.0000    20.0000    10.0000    20.0000    26.0000    10.0000    16.0000    20.0000    -0.0005     0.0005   159.4164   -41.1662     2.3748    26.9504    14.7000     2.0000     1.0000   300.0110     0.000
     13     1.5001     0.2500    -0.0000    11.9996     27.282     19.000 194311.000     30.000    49.5636   -20.0773   -30.2426   120.0962    -0.1480    -3.0001   -47.0791     0.0000     0.0000     0.0000     1.0000   300.0000   300.0000   -36.5766    41.4161    -1.9790    -1.4485    20.0000    20.0000    10.0000    20.0000    26.0000    10.0000    16.0000    20.0000    -0.0005     0.0005   159.4164   -41.1662     2.3748    26.6996    14.7000     2.0000     1.0000   300.0010     0.000
     14     1.5000     0.2500    -0.0000    11.7500     27.224     20.000 194311.000     30.000    49.7973   -20.0773   -30.3884   120.0962    -0.1480    -3.0001   -46.8422     0.0000     0.0000     0.0000     1.0000   300.0000   300.0000   -36.8807    41.6546    -1.9790    -1.4485    20.0000    20.0000    10.0000    20.0000    26.0000    10.0000    16.0000    20.0000    -0.0005     0.0005   159.4164   -41.1662     2.3746    26.4500    14.7000     2.0000     1.0000   300.0150     0.000
     15     1.5000     0.2500    -0.0000    11.5002     27.209     15.000 194311.000     30.000    50.0343   -20.0773   -30.5364   120.0962    -0.1480    -3.0001   -46.6044     0.0000     0.0000     0.0000     1.0000   300.0000   300.0000   -37.1853    41.8977    -1.9790    -1.4485    20.0000    20.0000    10.0000    20.0000    26.0000    10.0000    16.0000    20.0000    -0.0005     0.0005   159.4164   -41.1662     2.3747    26.2002    14.7000     2.0000     1.0000   300.0220     0.000
     16     1.5000     0.2500    -0.0000    11.2501     26.925     11.000 194311.000     30.000    50.2748   -20.0773   -30.6868   120.0962    -0.1480    -3.0001   -46.3655     0.0000     0.0000     0.0000     1.0000   300.0000   300.0000   -37.4904    42.1403    -1.9790    -1.4485    20.0000    20.0000    10.0000    20.0000    26.0000    10.0000    16.0000    20.0000    -0.0005     0.0005   159.4164   -41.1662     2.3747    25.9501    14.7000     2.0000     1.0000   300.0010     0.000
     17     1.5001     0.2500    -0.0000    10.9999     26.786     15.000 194311.000     30.000    50.5187   -20.0773   -30.8395   120.0962    -0.1480    -3.0001   -46.1257     0.0000     0.0000     0.0000     1.0000   300.0000   300.0000   -37.7955    42.3828    -1.9790    -1.4485    20.0000    20.0000    10.0000    20.0000    26.0000    10.0000    16.0000    20.0000    -0.0005     0.0005   159.4164   -41.1662     2.3748    25.6999    14.7000     2.0000     1.0000   299.9510     0.000
     18     1.5000     0.2500    -0.0000    10.7500     26.543     20.000 194311.000     30.000    50.7662   -20.0773   -30.9943   120.0962    -0.1480    -3.0001   -45.8849     0.0000     0.0000     0.0000     1.0000   300.0000   300.0000   -38.1009    42.6229    -1.9790    -1.4485    20.0000    20.0000    10.0000    20.0000    26.0000    10.0000    16.0000    20.0000    -0.0005     0.0005   159.4164   -41.1662     2.3747    25.4501    14.7000     2.0000     1.0000   300.0090     0.000
     19     1.5000     0.2500    -0.0000    10.5003     26.476     15.000 194311.000     30.000    51.0174   -20.0773   -31.1514   120.0962    -0.1480    -3.0001   -45.6430     0.0000     0.0000     0.0000     1.0000   300.0000   300.0000   -38.4069    42.8635    -1.9790    -1.4485    20.0000    20.0000    10.0000    20.0000    26.0000    10.0000    16.0000    20.0000    -0.0005     0.0005   159.4164   -41.1662     2.3747    25.2003    14.7000     2.0000     1.0000   299.9370     0.000
     20     1.5000     0.2500    -0.0000    10.2503     26.728     14.000 194311.000     30.000    51.2724   -20.0773   -31.3111   120.0962    -0.1480    -3.0001   -45.4002     0.0000     0.0000     0.0000     1.0000   300.0000   300.0000   -38.7139    43.1038    -1.9790    -1.4485    20.0000    20.0000    10.0000    20.0000    26.0000    10.0000    16.0000    20.0000    -0.0005     0.0005   159.4164   -41.1662     2.3747    24.9503    14.7000     2.0000     1.0000   300.0200     0.000
     21     1.5000     0.2500    -0.0000    10.0000     26.879      8.000 194311.000     30.000    51.5312   -20.0773   -31.4734   120.0962    -0.1480    -3.0001   -45.1562     0.0000     0.0000     0.0000     1.0000   300.0000   300.0000   -39.0201    43.3452    -1.9790    -1.4485    20.0000    20.0000    10.0000    20.0000    26.0000    10.0000    16.0000    20.0000    -0.0005     0.0005   159.4164   -41.1662     2.3747    24.7000    14.7000     2.0000     1.0000   299.9720     0.000
     22     1.5001     0.2500    -0.0000     9.7498     27.197     12.000 194311.000     30.000    51.7940   -20.0773   -31.6382   120.0962    -0.1480    -3.0001   -44.9112     0.0000     0.0000     0.0000     1.0000   300.0000   300.0000   -39.3278    43.5873    -1.9790    -1.4485    20.0000    20.0000    10.0000    20.0000    26.0000    10.0000    16.0000    20.0000    -0.0005     0.0005   159.4164   -41.1662     2.3748    24.4498    14.7000     2.0000     1.0000   300.0010     0.000
     23     1.5000     0.2500    -0.0000     9.4998     27.569     16.000 194311.000     30.000    52.0609   -20.0773   -31.8055   120.0962    -0.1480    -3.0001   -44.6652     0.0000     0.0000     0.0000     1.0000   300.0000   300.0000   -39.6363    43.8251    -1.9790    -1.4485    20.0000    20.0000    10.0000    20.0000    26.0000    10.0000    16.0000    20.0000    -0.0005     0.0005   159.4164   -41.1662     2.3747    24.1998    14.7000     2.0000     1.0000   300.0160     0.000
     24     1.5000     0.2500    -0.0000     9.2502     27.793     13.000 194311.000     30.000    52.3319   -20.0773   -31.9752   120.0962    -0.1480    -3.0001   -44.4180     0.0000     0.0000     0.0000     1.0000   300.0000   300.0000   -39.9445    44.0653    -1.9790    -1.4485    20.0000    20.0000    10.0000    20.0000    26.0000    10.0000    16.0000    20.0000    -0.0005     0.0005   159.4164   -41.1662     2.3747    23.9503    14.7000     2.0000     1.0000   300.0130     0.000
     25     1.5000     0.2500    -0.0000     8.9999     27.660     20.000 194311.000     30.000    52.6071   -20.0773   -32.1482   120.0962    -0.1480    -3.0001   -44.1697     0.0000     0.0000     0.0000     1.0000   300.0000   300.0000   -40.2542    44.3044    -1.9790    -1.4485    20.0000    20.0000    10.0000    20.0000    26.0000    10.0000    16.0000    20.0000    -0.0005     0.0005   159.4164   -41.1662     2.3747    23.6999    14.7000     2.0000     1.0000   300.0170     0.000
     26     1.5000     0.2500    -0.0000     8.7501     27.065     17.000 194311.000     30.000    52.8868   -20.0773   -32.3237   120.0962    -0.1480    -3.0001   -43.9203     0.0000     0.0000     0.0000     1.0000   300.0000   300.0000   -40.5637    44.5440    -1.9790    -1.4485    20.0000    20.0000    10.0000    20.0000    26.0000    10.0000    16.0000    20.0000    -0.0005     0.0005   159.4164   -41.1662     2.3747    23.4501    14.7000     2.0000     1.0000   300.0020     0.000
     27     1.5001     0.2500    -0.0000     8.5001     26.442     18.000 194311.000     30.000    53.1710   -20.0773   -32.5021   120.0962    -0.1480    -3.0001   -43.6697     0.0000     0.0000     0.0000     1.0000   300.0000   300.0000   -40.8746    44.7855    -1.9790    -1.4485    20.0000    20.0000    10.0000    20.0000    26.0000    10.0000    16.0000    20.0000    -0.0005     0.0005   159.4164   -41.1662     2.3748    23.2001    14.7000     2.0000     1.0000   300.0120     0.000
     28     1.5000     0.2500    -0.0000     8.2498     25.439     17.000 194311.000     30.000    53.4598   -20.0773   -32.6838   120.0962    -0.1480    -3.0001   -43.4180     0.0000     0.0000     0.0000     1.0000   300.0000   300.0000   -41.1859    45.0241    -1.9790    -1.4485    20.0000    20.0000    10.0000    20.0000    26.0000    10.0000    16.0000    20.0000    -0.0005     0.0005   159.4164   -41.1662     2.3747    22.9498    14.7000     2.0000     1.0000   300.0060     0.000
     29     1.5000     0.2500    -0.0000     8.0000     24.786     22.000 194311.000     30.000    53.7534   -20.0773   -32.8682   120.0962    -0.1480    -3.0001   -43.1651     0.0000     0.0000     0.0000     1.0000   300.0000   300.0000   -41.4984    45.2617    -1.9790    -1.4485    20.0000    20.0000    10.0000    20.0000    26.0000    10.0000    16.0000    20.0000    -0.0005     0.0005   159.4164   -41.1662     2.3746    22.7000    14.7000     2.0000     1.0000   300.0210     0.000
     30     1.5000     0.2500    -0.0000     7.7502     24.316     25.000 194311.000     30.000    54.0519   -20.0773   -33.0558   120.0962    -0.1480    -3.0001   -42.9109     0.0000     0.0000     0.0000     1.0000   300.0000   300.0000   -41.8113    45.5019    -1.9790    -1.4485    20.0000    20.0000    10.0000    20.0000    26.0000    10.0000    16.0000    20.0000    -0.0005     0.0005   159.4164   -41.1662     2.3747    22.4502    14.7000     2.0000     1.0000   300.0160     0.000
     31     1.5000     0.2500    -0.0000     7.4998     24.195     21.000 194311.000     30.000    54.3554   -20.0773   -33.2471   120.0962    -0.1480    -3.0001   -42.6556     0.0000     0.0000     0.0000     1.0000   300.0000   300.0000   -42.1250    45.7409    -1.9790    -1.4485    20.0000    20.0000    10.0000    20.0000    26.0000    10.0000    16.0000    20.0000    -0.0005     0.0005   159.4164   -41.1662     2.3747    22.1998    14.7000     2.0000     1.0000   300.0110     0.000
     32     1.5001     0.2500    -0.0000     7.2503     24.193     28.000 194311.000     30.000    54.6640   -20.0773   -33.4410   120.0962    -0.1480    -3.0001   -42.3989     0.0000     0.0000     0.0000     1.0000   300.0000   300.0000   -42.4402    45.9836    -1.9790    -1.4485    20.0000    20.0000    10.0000    20.0000    26.0000    10.0000    16.0000    20.0000    -0.0005     0.0005   159.4164   -41.1662     2.3749    21.9503    14.7000     2.0000     1.0000   299.9940     0.000
     33     1.5000     0.2500    -0.0000     6.9997     24.128     22.000 194311.000     30.000    54.9780   -20.0773   -33.6393   120.0962    -0.1480    -3.0001   -42.1410     0.0000     0.0000     0.0000     1.0000   300.0000   300.0000   -42.7559    46.2208    -1.9790    -1.4485    20.0000    20.0000    10.0000    20.0000    26.0000    10.0000    16.0000    20.0000    -0.0005     0.0005   159.4164   -41.1662     2.3747    21.6997    14.7000     2.0000     1.0000   300.0150     0.000
     34     1.5000     0.2500    -0.0000     6.7501     24.206     22.000 194311.000     30.000    55.2975   -20.0773   -33.8403   120.0962    -0.1480    -3.0001   -41.8818     0.0000     0.0000     0.0000     1.0000   300.0000   300.0000   -43.0726    46.4570    -1.9790    -1.4485    20.0000    20.0000    10.0000    20.0000    26.0000    10.0000    16.0000    20.0000    -0.0005     0.0005   159.4164   -41.1662     2.3746    21.4501    14.7000     2.0000     1.0000   300.0140     0.000
     35     1.5000     0.2500    -0.0000     6.4999     24.467     31.000 194311.000     30.000    55.6225   -20.0773   -34.0454   120.0962    -0.1480    -3.0001   -41.6214     0.0000     0.0000     0.0000     1.0000   300.0000   300.0000   -43.3906    46.6972    -1.9790    -1.4485    20.0000    20.0000    10.0000    20.0000    26.0000    10.0000    16.0000    20.0000    -0.0005     0.0005   159.4164   -41.1662     2.3747    21.1999    14.7000     2.0000     1.0000   300.0190     0.000
     36     1.5000     0.2500    -0.0000     6.2500     24.687     18.000 194311.000     30.000    55.9535   -20.0773   -34.2541   120.0962    -0.1480    -3.0001   -41.3595     0.0000     0.0000     0.0000     1.0000   300.0000   300.0000   -43.7094    46.9373    -1.9790    -1.4485    20.0000    20.0000    10.0000    20.0000    26.0000    10.0000    16.0000    20.0000    -0.0005     0.0005   159.4164   -41.1662     2.3747    20.9500    14.7000     2.0000     1.0000   300.0070     0.000
     37     1.5001     0.2500    -0.0000     6.0001     24.995     16.000 194311.000     30.000    56.2903   -20.0773   -34.4667   120.0962    -0.1480    -3.0001   -41.0963     0.0000     0.0000     0.0000     1.0000   300.0000   300.0000   -44.0295    47.1785    -1.9790    -1.4485    20.0000    20.0000    10.0000    20.0000    26.0000    10.0000    16.0000    20.0000    -0.0005     0.0005   159.4164   -41.1662     2.3748    20.7001    14.7000     2.0000     1.0000   299.9990     0.000
