# scan = 82
# date = 9/6/2024
# time = 1:16:00 AM
# proposal = 32905
# experiment = Effects of electric field on phonon dispersion and lifetimes of poled PMN-30PT
# experiment_number = 812
# command = scan h 2 k -0.5 l 0 e 20 0 0.25 preset mcu 30
# builtin_command = scan h 2 k -0.5 l 0 e 20 0 0.25 preset mcu 30
# users = George Yumnam, Michael Manley, Puspa Upreti, Raphael Hermann, SHAOFEI WANG
# local_contact = Songxue Chi
# scan_title = (2,-0.5,0) G to X transverse mode scan at E 240 V
# monochromator = PG002
# analyzer = Pg002
# sense = -+-
# collimation = 48-40-40-120
# samplename = PMN-30PT
# sampletype = crystal
# samplemosaic = 30.000000
# latticeconstants = 4.023634,4.023634,4.023634,90.000000,90.000000,90.000000
# ubmatrix = -0.008055,-0.248252,-0.008588,-0.248328,0.007840,0.006285,-0.006007,0.008785,-0.248304
# mode = 0
# plane_normal = 0.034555,-0.025290,0.999083
# ubconf = UB04Sep2024_115522AM.ini
# preset_type = normal 
# preset_channel = mcu
# preset_value = 30.000000
# def_x = e
# def_y = detector
# col_headers = 
#   Pt.          h          k          l          e       time   detector    monitor        mcu focal_length         m1         m2   mcrystal       marc     mtrans     mfocus       ampl         dc       freq     output       temp     temp_2         s1         s2        sgl        sgu        bbb        bbl        bbr        bbt        bab        bal        bar        bat        stl        stu         a1         a2          q         ei         ef   ampl_out output_state        vti     sample
      1     2.0000    -0.5001    -0.0001    20.0027     25.299     45.000 194311.000     30.000    43.4765   -20.0773   -26.4546   120.0962    -0.1480    -3.0001   -54.2224     0.0000   240.0000     0.0000     1.0000   300.0000   300.0000   -52.7424    51.8117    -1.9790    -1.4485    20.0000    20.0000    10.0000    20.0000    26.0000    10.0000    16.0000    20.0000    -0.0005     0.0005   159.4164   -41.1662     3.2193    34.7027    14.7000     2.0000     1.0000   300.0320     0.000
      2     2.0000    -0.5000    -0.0001    19.7497     25.218     54.000 194311.000     30.000    43.6339   -20.0773   -26.5533   120.0962    -0.1480    -3.0001   -54.0105     0.0000   240.0000     0.0000     1.0000   300.0000   300.0000   -52.9046    52.0540    -1.9790    -1.4485    20.0000    20.0000    10.0000    20.0000    26.0000    10.0000    16.0000    20.0000    -0.0005     0.0005   159.4164   -41.1662     3.2192    34.4497    14.7000     2.0000     1.0000   300.0280     0.000
      3     2.0000    -0.5000    -0.0001    19.4998     25.341     45.000 194311.000     30.000    43.7931   -20.0773   -26.6519   120.0962    -0.1480    -3.0001   -53.7978     0.0000   240.0000     0.0000     1.0000   300.0000   300.0000   -53.0670    52.2970    -1.9790    -1.4485    20.0000    20.0000    10.0000    20.0000    26.0000    10.0000    16.0000    20.0000    -0.0005     0.0005   159.4164   -41.1662     3.2193    34.1998    14.7000     2.0000     1.0000   300.0060     0.000
      4     2.0000    -0.5000    -0.0001    19.2501     25.371     39.000 194311.000     30.000    43.9541   -20.0773   -26.7516   120.0962    -0.1480    -3.0001   -53.5845     0.0000   240.0000     0.0000     1.0000   300.0000   300.0000   -53.2286    52.5385    -1.9790    -1.4485    20.0000    20.0000    10.0000    20.0000    26.0000    10.0000    16.0000    20.0000    -0.0005     0.0005   159.4164   -41.1662     3.2193    33.9501    14.7000     2.0000     1.0000   300.0050     0.000
      5     2.0000    -0.5000    -0.0001    19.0003     25.595     49.000 194311.000     30.000    44.1168   -20.0773   -26.8524   120.0962    -0.1480    -3.0001   -53.3706     0.0000   240.0000     0.0000     1.0000   300.0000   300.0000   -53.3903    52.7822    -1.9790    -1.4485    20.0000    20.0000    10.0000    20.0000    26.0000    10.0000    16.0000    20.0000    -0.0005     0.0005   159.4164   -41.1662     3.2193    33.7003    14.7000     2.0000     1.0000   299.9990     0.000
      6     2.0000    -0.5000    -0.0001    18.7494     25.810     45.000 194311.000     30.000    44.2813   -20.0773   -26.9548   120.0962    -0.1480    -3.0001   -53.1560     0.0000   240.0000     0.0000     1.0000   300.0000   300.0000   -53.5515    53.0247    -1.9790    -1.4485    20.0000    20.0000    10.0000    20.0000    26.0000    10.0000    16.0000    20.0000    -0.0005     0.0005   159.4164   -41.1662     3.2193    33.4494    14.7000     2.0000     1.0000   300.0130     0.000
      7     2.0000    -0.5000    -0.0001    18.5001     25.826     49.000 194311.000     30.000    44.4478   -20.0773   -27.0577   120.0962    -0.1480    -3.0001   -52.9407     0.0000   240.0000     0.0000     1.0000   300.0000   300.0000   -53.7125    53.2666    -1.9790    -1.4485    20.0000    20.0000    10.0000    20.0000    26.0000    10.0000    16.0000    20.0000    -0.0005     0.0005   159.4164   -41.1662     3.2192    33.2001    14.7000     2.0000     1.0000   300.0030     0.000
      8     2.0000    -0.5000    -0.0001    18.2502     26.053     53.000 194311.000     30.000    44.6161   -20.0773   -27.1621   120.0962    -0.1480    -3.0001   -52.7248     0.0000   240.0000     0.0000     1.0000   300.0000   300.0000   -53.8736    53.5119    -1.9790    -1.4485    20.0000    20.0000    10.0000    20.0000    26.0000    10.0000    16.0000    20.0000    -0.0005     0.0005   159.4164   -41.1662     3.2193    32.9502    14.7000     2.0000     1.0000   300.0050     0.000
      9     2.0000    -0.5000    -0.0001    17.9999     26.202     40.000 194311.000     30.000    44.7863   -20.0773   -27.2678   120.0962    -0.1480    -3.0001   -52.5081     0.0000   240.0000     0.0000     1.0000   300.0000   300.0000   -54.0341    53.7558    -1.9790    -1.4485    20.0000    20.0000    10.0000    20.0000    26.0000    10.0000    16.0000    20.0000    -0.0005     0.0005   159.4164   -41.1662     3.2193    32.7000    14.7000     2.0000     1.0000   299.9130     0.000
     10     2.0000    -0.5000    -0.0001    17.7505     26.319     51.000 194311.000     30.000    44.9585   -20.0773   -27.3745   120.0962    -0.1480    -3.0001   -52.2908     0.0000   240.0000     0.0000     1.0000   300.0000   300.0000   -54.1944    54.0013    -1.9790    -1.4485    20.0000    20.0000    10.0000    20.0000    26.0000    10.0000    16.0000    20.0000    -0.0005     0.0005   159.4164   -41.1662     3.2193    32.4505    14.7000     2.0000     1.0000   300.0030     0.000
     11     2.0000    -0.5000    -0.0001    17.4997     26.445     53.000 194311.000     30.000    45.1326   -20.0773   -27.4829   120.0962    -0.1480    -3.0001   -52.0728     0.0000   240.0000     0.0000     1.0000   300.0000   300.0000   -54.3549    54.2442    -1.9790    -1.4485    20.0000    20.0000    10.0000    20.0000    26.0000    10.0000    16.0000    20.0000    -0.0005     0.0005   159.4164   -41.1662     3.2192    32.1997    14.7000     2.0000     1.0000   299.9880     0.000
     12     2.0000    -0.5000    -0.0001    17.2499     26.574     54.000 194311.000     30.000    45.3089   -20.0773   -27.5923   120.0962    -0.1480    -3.0001   -51.8540     0.0000   240.0000     0.0000     1.0000   300.0000   300.0000   -54.5149    54.4903    -1.9790    -1.4485    20.0000    20.0000    10.0000    20.0000    26.0000    10.0000    16.0000    20.0000    -0.0005     0.0005   159.4164   -41.1662     3.2192    31.9499    14.7000     2.0000     1.0000   300.0040     0.000
     13     2.0000    -0.5000    -0.0001    17.0001     26.733     63.000 194311.000     30.000    45.4872   -20.0773   -27.7029   120.0962    -0.1480    -3.0001   -51.6345     0.0000   240.0000     0.0000     1.0000   300.0000   300.0000   -54.6746    54.7379    -1.9790    -1.4485    20.0000    20.0000    10.0000    20.0000    26.0000    10.0000    16.0000    20.0000    -0.0005     0.0005   159.4164   -41.1662     3.2193    31.7001    14.7000     2.0000     1.0000   300.0050     0.000
     14     2.0000    -0.5000    -0.0001    16.7497     26.719     65.000 194311.000     30.000    45.6676   -20.0773   -27.8152   120.0962    -0.1480    -3.0001   -51.4143     0.0000   240.0000     0.0000     1.0000   300.0000   300.0000   -54.8344    54.9855    -1.9790    -1.4485    20.0000    20.0000    10.0000    20.0000    26.0000    10.0000    16.0000    20.0000    -0.0005     0.0005   159.4164   -41.1662     3.2193    31.4497    14.7000     2.0000     1.0000   300.0230     0.000
     15     2.0000    -0.5000    -0.0001    16.5001     26.663     52.000 194311.000     30.000    45.8503   -20.0773   -27.9285   120.0962    -0.1480    -3.0001   -51.1934     0.0000   240.0000     0.0000     1.0000   300.0000   300.0000   -54.9941    55.2316    -1.9790    -1.4485    20.0000    20.0000    10.0000    20.0000    26.0000    10.0000    16.0000    20.0000    -0.0005     0.0005   159.4164   -41.1662     3.2193    31.2001    14.7000     2.0000     1.0000   300.0140     0.000
     16     2.0000    -0.5000    -0.0001    16.2499     26.749     47.000 194311.000     30.000    46.0351   -20.0773   -28.0435   120.0962    -0.1480    -3.0001   -50.9717     0.0000   240.0000     0.0000     1.0000   300.0000   300.0000   -55.1528    55.4790    -1.9790    -1.4485    20.0000    20.0000    10.0000    20.0000    26.0000    10.0000    16.0000    20.0000    -0.0005     0.0005   159.4164   -41.1662     3.2192    30.9499    14.7000     2.0000     1.0000   300.0070     0.000
     17     2.0000    -0.5000    -0.0001    15.9996     26.947     41.000 194311.000     30.000    46.2221   -20.0773   -28.1599   120.0962    -0.1480    -3.0001   -50.7492     0.0000   240.0000     0.0000     1.0000   300.0000   300.0000   -55.3122    55.7290    -1.9790    -1.4485    20.0000    20.0000    10.0000    20.0000    26.0000    10.0000    16.0000    20.0000    -0.0005     0.0005   159.4164   -41.1662     3.2193    30.6996    14.7000     2.0000     1.0000   300.0050     0.000
     18     2.0001    -0.5001    -0.0001    15.7507     26.918     51.000 194311.000     30.000    46.4115   -20.0773   -28.2772   120.0962    -0.1480    -3.0001   -50.5260     0.0000   240.0000     0.0000     1.0000   300.0000   300.0000   -55.4711    55.9812    -1.9790    -1.4485    20.0000    20.0000    10.0000    20.0000    26.0000    10.0000    16.0000    20.0000    -0.0005     0.0005   159.4164   -41.1662     3.2195    30.4507    14.7000     2.0000     1.0000   299.9990     0.000
     19     2.0000    -0.5000    -0.0001    15.4997     27.139     36.000 194311.000     30.000    46.6032   -20.0773   -28.3969   120.0962    -0.1480    -3.0001   -50.3021     0.0000   240.0000     0.0000     1.0000   300.0000   300.0000   -55.6296    56.2271    -1.9790    -1.4485    20.0000    20.0000    10.0000    20.0000    26.0000    10.0000    16.0000    20.0000    -0.0005     0.0005   159.4164   -41.1662     3.2192    30.1997    14.7000     2.0000     1.0000   300.0270     0.000
     20     2.0000    -0.5000    -0.0001    15.2500     27.313     50.000 194311.000     30.000    46.7972   -20.0773   -28.5175   120.0962    -0.1480    -3.0001   -50.0773     0.0000   240.0000     0.0000     1.0000   300.0000   300.0000   -55.7881    56.4775    -1.9790    -1.4485    20.0000    20.0000    10.0000    20.0000    26.0000    10.0000    16.0000    20.0000    -0.0005     0.0005   159.4164   -41.1662     3.2192    29.9500    14.7000     2.0000     1.0000   299.9400     0.000
     21     2.0000    -0.5000    -0.0001    15.0003     27.257     42.000 194311.000     30.000    46.9938   -20.0773   -28.6397   120.0962    -0.1480    -3.0001   -49.8518     0.0000   240.0000     0.0000     1.0000   300.0000   300.0000   -55.9466    56.7302    -1.9790    -1.4485    20.0000    20.0000    10.0000    20.0000    26.0000    10.0000    16.0000    20.0000    -0.0005     0.0005   159.4164   -41.1662     3.2193    29.7003    14.7000     2.0000     1.0000   300.0030     0.000
     22     2.0000    -0.5000    -0.0001    14.7496     27.221     34.000 194311.000     30.000    47.1929   -20.0773   -28.7640   120.0962    -0.1480    -3.0001   -49.6254     0.0000   240.0000     0.0000     1.0000   300.0000   300.0000   -56.1045    56.9836    -1.9790    -1.4485    20.0000    20.0000    10.0000    20.0000    26.0000    10.0000    16.0000    20.0000    -0.0005     0.0005   159.4164   -41.1662     3.2193    29.4496    14.7000     2.0000     1.0000   300.0160     0.000
     23     2.0000    -0.5000    -0.0001    14.4999     26.943     24.000 194311.000     30.000    47.3944   -20.0773   -28.8893   120.0962    -0.1480    -3.0001   -49.3982     0.0000   240.0000     0.0000     1.0000   300.0000   300.0000   -56.2626    57.2348    -1.9790    -1.4485    20.0000    20.0000    10.0000    20.0000    26.0000    10.0000    16.0000    20.0000    -0.0005     0.0005   159.4164   -41.1662     3.2193    29.1999    14.7000     2.0000     1.0000   300.0050     0.000
     24     2.0000    -0.5000    -0.0001    14.2506     26.521     38.000 194311.000     30.000    47.5986   -20.0773   -29.0161   120.0962    -0.1480    -3.0001   -49.1702     0.0000   240.0000     0.0000     1.0000   300.0000   300.0000   -56.4206    57.4875    -1.9790    -1.4485    20.0000    20.0000    10.0000    20.0000    26.0000    10.0000    16.0000    20.0000    -0.0005     0.0005   159.4164   -41.1662     3.2193    28.9507    14.7000     2.0000     1.0000   300.0190     0.000
     25     2.0000    -0.5000    -0.0001    13.9994     26.093     31.000 194311.000     30.000    47.8055   -20.0773   -29.1457   120.0962    -0.1480    -3.0001   -48.9414     0.0000   240.0000     0.0000     1.0000   300.0000   300.0000   -56.5778    57.7436    -1.9790    -1.4485    20.0000    20.0000    10.0000    20.0000    26.0000    10.0000    16.0000    20.0000    -0.0005     0.0005   159.4164   -41.1662     3.2193    28.6994    14.7000     2.0000     1.0000   300.0090     0.000
     26     2.0001    -0.5000    -0.0001    13.7504     25.730     26.000 194311.000     30.000    48.0151   -20.0773   -29.2758   120.0962    -0.1480    -3.0001   -48.7117     0.0000   240.0000     0.0000     1.0000   300.0000   300.0000   -56.7356    58.0001    -1.9790    -1.4485    20.0000    20.0000    10.0000    20.0000    26.0000    10.0000    16.0000    20.0000    -0.0005     0.0005   159.4164   -41.1662     3.2194    28.4504    14.7000     2.0000     1.0000   300.0060     0.000
     27     2.0000    -0.5000    -0.0001    13.5003     25.584     25.000 194311.000     30.000    48.2274   -20.0773   -29.4082   120.0962    -0.1480    -3.0001   -48.4811     0.0000   240.0000     0.0000     1.0000   300.0000   300.0000   -56.8925    58.2531    -1.9790    -1.4485    20.0000    20.0000    10.0000    20.0000    26.0000    10.0000    16.0000    20.0000    -0.0005     0.0005   159.4164   -41.1662     3.2192    28.2003    14.7000     2.0000     1.0000   300.0090     0.000
     28     2.0000    -0.5000    -0.0001    13.2496     25.650     23.000 194311.000     30.000    48.4427   -20.0773   -29.5428   120.0962    -0.1480    -3.0001   -48.2497     0.0000   240.0000     0.0000     1.0000   300.0000   300.0000   -57.0495    58.5115    -1.9790    -1.4485    20.0000    20.0000    10.0000    20.0000    26.0000    10.0000    16.0000    20.0000    -0.0005     0.0005   159.4164   -41.1662     3.2193    27.9496    14.7000     2.0000     1.0000   300.0140     0.000
     29     2.0000    -0.5000    -0.0001    13.0000     25.780     20.000 194311.000     30.000    48.6608   -20.0773   -29.6786   120.0962    -0.1480    -3.0001   -48.0174     0.0000   240.0000     0.0000     1.0000   300.0000   300.0000   -57.2065    58.7696    -1.9790    -1.4485    20.0000    20.0000    10.0000    20.0000    26.0000    10.0000    16.0000    20.0000    -0.0005     0.0005   159.4164   -41.1662     3.2193    27.7000    14.7000     2.0000     1.0000   300.0110     0.000
     30     2.0000    -0.5000    -0.0001    12.7500     26.068     24.000 194311.000     30.000    48.8819   -20.0773   -29.8166   120.0962    -0.1480    -3.0001   -47.7842     0.0000   240.0000     0.0000     1.0000   300.0000   300.0000   -57.3633    59.0271    -1.9790    -1.4485    20.0000    20.0000    10.0000    20.0000    26.0000    10.0000    16.0000    20.0000    -0.0005     0.0005   159.4164   -41.1662     3.2192    27.4500    14.7000     2.0000     1.0000   300.0070     0.000
     31     2.0000    -0.5000    -0.0001    12.4999     26.555     18.000 194311.000     30.000    49.1060   -20.0773   -29.9566   120.0962    -0.1480    -3.0001   -47.5501     0.0000   240.0000     0.0000     1.0000   300.0000   300.0000   -57.5196    59.2871    -1.9790    -1.4485    20.0000    20.0000    10.0000    20.0000    26.0000    10.0000    16.0000    20.0000    -0.0005     0.0005   159.4164   -41.1662     3.2192    27.1999    14.7000     2.0000     1.0000   299.9390     0.000
     32     2.0000    -0.5000    -0.0001    12.2504     26.850     22.000 194311.000     30.000    49.3332   -20.0773   -30.0982   120.0962    -0.1480    -3.0001   -47.3151     0.0000   240.0000     0.0000     1.0000   300.0000   300.0000   -57.6761    59.5487    -1.9790    -1.4485    20.0000    20.0000    10.0000    20.0000    26.0000    10.0000    16.0000    20.0000    -0.0005     0.0005   159.4164   -41.1662     3.2193    26.9504    14.7000     2.0000     1.0000   299.9940     0.000
     33     2.0000    -0.5000    -0.0001    11.9996     27.040     31.000 194311.000     30.000    49.5636   -20.0773   -30.2426   120.0962    -0.1480    -3.0001   -47.0791     0.0000   240.0000     0.0000     1.0000   300.0000   300.0000   -57.8321    59.8117    -1.9790    -1.4485    20.0000    20.0000    10.0000    20.0000    26.0000    10.0000    16.0000    20.0000    -0.0005     0.0005   159.4164   -41.1662     3.2193    26.6996    14.7000     2.0000     1.0000   300.0140     0.000
     34     2.0000    -0.5000    -0.0001    11.7500     27.035     26.000 194311.000     30.000    49.7973   -20.0773   -30.3883   120.0962    -0.1480    -3.0001   -46.8422     0.0000   240.0000     0.0000     1.0000   300.0000   300.0000   -57.9881    60.0712    -1.9790    -1.4485    20.0000    20.0000    10.0000    20.0000    26.0000    10.0000    16.0000    20.0000    -0.0005     0.0005   159.4164   -41.1662     3.2192    26.4500    14.7000     2.0000     1.0000   300.0130     0.000
     35     2.0000    -0.5000    -0.0001    11.5001     27.040     19.000 194311.000     30.000    50.0343   -20.0773   -30.5364   120.0962    -0.1480    -3.0001   -46.6044     0.0000   240.0000     0.0000     1.0000   300.0000   300.0000   -58.1441    60.3369    -1.9790    -1.4485    20.0000    20.0000    10.0000    20.0000    26.0000    10.0000    16.0000    20.0000    -0.0005     0.0005   159.4164   -41.1662     3.2193    26.2001    14.7000     2.0000     1.0000   300.0250     0.000
     36     2.0001    -0.5000    -0.0001    11.2500     26.778     31.000 194311.000     30.000    50.2748   -20.0773   -30.6869   120.0962    -0.1480    -3.0001   -46.3655     0.0000   240.0000     0.0000     1.0000   300.0000   300.0000   -58.2995    60.6037    -1.9790    -1.4485    20.0000    20.0000    10.0000    20.0000    26.0000    10.0000    16.0000    20.0000    -0.0005     0.0005   159.4164   -41.1662     3.2194    25.9500    14.7000     2.0000     1.0000   300.0050     0.000
     37     2.0000    -0.5000    -0.0001    10.9999     26.647     19.000 194311.000     30.000    50.5187   -20.0773   -30.8395   120.0962    -0.1480    -3.0001   -46.1257     0.0000   240.0000     0.0000     1.0000   300.0000   300.0000   -58.4549    60.8657    -1.9790    -1.4485    20.0000    20.0000    10.0000    20.0000    26.0000    10.0000    16.0000    20.0000    -0.0005     0.0005   159.4164   -41.1662     3.2192    25.6999    14.7000     2.0000     1.0000   300.0000     0.000
