# scan = 96
# date = 9/6/2024
# time = 9:47:18 AM
# proposal = 32905
# experiment = Effects of electric field on phonon dispersion and lifetimes of poled PMN-30PT
# experiment_number = 812
# command = scan h 2.5 k 0.65 l 0 e 15 0 0.25 preset mcu 30
# builtin_command = scan h 2.5 k 0.65 l 0 e 15 0 0.25 preset mcu 30
# users = George Yumnam, Michael Manley, Puspa Upreti, Raphael Hermann, SHAOFEI WANG
# local_contact = Songxue Chi
# scan_title = (2.5,0.65,0) X to M transverse mode scan at E 240 V
# monochromator = PG002
# analyzer = Pg002
# sense = -+-
# collimation = 48-40-40-120
# samplename = PMN-30PT
# sampletype = crystal
# samplemosaic = 30.000000
# latticeconstants = 4.023634,4.023634,4.023634,90.000000,90.000000,90.000000
# ubmatrix = -0.008055,-0.248252,-0.008588,-0.248328,0.007840,0.006285,-0.006007,0.008785,-0.248304
# mode = 0
# plane_normal = 0.034555,-0.025290,0.999083
# ubconf = UB04Sep2024_115522AM.ini
# preset_type = normal 
# preset_channel = mcu
# preset_value = 30.000000
# def_x = e
# def_y = detector
# col_headers = 
#   Pt.          h          k          l          e       time   detector    monitor        mcu focal_length         m1         m2   mcrystal       marc     mtrans     mfocus       ampl         dc       freq     output       temp     temp_2         s1         s2        sgl        sgu        bbb        bbl        bbr        bbt        bab        bal        bar        bat        stl        stu         a1         a2          q         ei         ef   ampl_out output_state        vti     sample
      1     2.5001     0.6500    -0.0001    15.0018     27.580     28.000 194311.000     30.000    46.9938   -20.0773   -28.6390   120.0962    -0.1480    -3.0001   -49.8518     0.0000   240.0000     0.0000     1.0000   300.0000   300.0000   -23.2365    75.1877    -1.9790    -1.4485    20.0000    20.0000    10.0000    20.0000    26.0000    10.0000    16.0000    20.0000    -0.0005     0.0005   159.4164   -41.1662     4.0339    29.7018    14.7000     2.0000     1.0000   299.9250     0.000
      2     2.5000     0.6500    -0.0001    14.7495     27.371     33.000 194311.000     30.000    47.1929   -20.0773   -28.7640   120.0962    -0.1480    -3.0001   -49.6254     0.0000   240.0000     0.0000     1.0000   300.0000   300.0000   -23.3001    75.4771    -1.9790    -1.4485    20.0000    20.0000    10.0000    20.0000    26.0000    10.0000    16.0000    20.0000    -0.0005     0.0005   159.4164   -41.1662     4.0337    29.4495    14.7000     2.0000     1.0000   300.0130     0.000
      3     2.5000     0.6500    -0.0001    14.4997     27.053     47.000 194311.000     30.000    47.3944   -20.0773   -28.8894   120.0962    -0.1480    -3.0001   -49.3982     0.0000   240.0000     0.0000     1.0000   300.0000   300.0000   -23.3628    75.7731    -1.9790    -1.4485    20.0000    20.0000    10.0000    20.0000    26.0000    10.0000    16.0000    20.0000    -0.0005     0.0005   159.4164   -41.1662     4.0338    29.1997    14.7000     2.0000     1.0000   300.0350     0.000
      4     2.5000     0.6500    -0.0001    14.2507     26.415     45.000 194311.000     30.000    47.5986   -20.0773   -29.0161   120.0962    -0.1480    -3.0001   -49.1702     0.0000   240.0000     0.0000     1.0000   300.0000   300.0000   -23.4246    76.0649    -1.9790    -1.4485    20.0000    20.0000    10.0000    20.0000    26.0000    10.0000    16.0000    20.0000    -0.0005     0.0005   159.4164   -41.1662     4.0337    28.9508    14.7000     2.0000     1.0000   299.9980     0.000
      5     2.5001     0.6500    -0.0001    13.9994     26.046     32.000 194311.000     30.000    47.8055   -20.0773   -29.1456   120.0962    -0.1480    -3.0001   -48.9414     0.0000   240.0000     0.0000     1.0000   300.0000   300.0000   -23.4856    76.3664    -1.9790    -1.4485    20.0000    20.0000    10.0000    20.0000    26.0000    10.0000    16.0000    20.0000    -0.0005     0.0005   159.4164   -41.1662     4.0338    28.6995    14.7000     2.0000     1.0000   300.0250     0.000
      6     2.5000     0.6500    -0.0001    13.7502     25.703     34.000 194311.000     30.000    48.0151   -20.0773   -29.2759   120.0962    -0.1480    -3.0001   -48.7117     0.0000   240.0000     0.0000     1.0000   300.0000   300.0000   -23.5456    76.6615    -1.9790    -1.4485    20.0000    20.0000    10.0000    20.0000    26.0000    10.0000    16.0000    20.0000    -0.0005     0.0005   159.4164   -41.1662     4.0337    28.4502    14.7000     2.0000     1.0000   299.9930     0.000
      7     2.5001     0.6500    -0.0001    13.5004     25.445     40.000 194311.000     30.000    48.2274   -20.0773   -29.4082   120.0962    -0.1480    -3.0001   -48.4811     0.0000   240.0000     0.0000     1.0000   300.0000   300.0000   -23.6047    76.9682    -1.9790    -1.4485    20.0000    20.0000    10.0000    20.0000    26.0000    10.0000    16.0000    20.0000    -0.0005     0.0005   159.4164   -41.1662     4.0339    28.2004    14.7000     2.0000     1.0000   300.0220     0.000
      8     2.4999     0.6500    -0.0001    13.2496     25.553     37.000 194311.000     30.000    48.4427   -20.0773   -29.5428   120.0962    -0.1480    -3.0001   -48.2497     0.0000   240.0000     0.0000     1.0000   300.0000   300.0000   -23.6636    77.2662    -1.9790    -1.4485    20.0000    20.0000    10.0000    20.0000    26.0000    10.0000    16.0000    20.0000    -0.0005     0.0005   159.4164   -41.1662     4.0336    27.9496    14.7000     2.0000     1.0000   300.0000     0.000
      9     2.5001     0.6500    -0.0001    13.0000     25.750     38.000 194311.000     30.000    48.6608   -20.0773   -29.6786   120.0962    -0.1480    -3.0001   -48.0174     0.0000   240.0000     0.0000     1.0000   300.0000   300.0000   -23.7206    77.5773    -1.9790    -1.4485    20.0000    20.0000    10.0000    20.0000    26.0000    10.0000    16.0000    20.0000    -0.0005     0.0005   159.4164   -41.1662     4.0339    27.7000    14.7000     2.0000     1.0000   300.0260     0.000
     10     2.5000     0.6500    -0.0001    12.7499     26.046     30.000 194311.000     30.000    48.8819   -20.0773   -29.8167   120.0962    -0.1480    -3.0001   -47.7842     0.0000   240.0000     0.0000     1.0000   300.0000   300.0000   -23.7771    77.8796    -1.9790    -1.4485    20.0000    20.0000    10.0000    20.0000    26.0000    10.0000    16.0000    20.0000    -0.0005     0.0005   159.4164   -41.1662     4.0337    27.4499    14.7000     2.0000     1.0000   300.0030     0.000
     11     2.5001     0.6500    -0.0001    12.5000     26.531     41.000 194311.000     30.000    49.1060   -20.0773   -29.9565   120.0962    -0.1480    -3.0001   -47.5501     0.0000   240.0000     0.0000     1.0000   300.0000   300.0000   -23.8326    78.1946    -1.9790    -1.4485    20.0000    20.0000    10.0000    20.0000    26.0000    10.0000    16.0000    20.0000    -0.0005     0.0005   159.4164   -41.1662     4.0339    27.2000    14.7000     2.0000     1.0000   300.0120     0.000
     12     2.5000     0.6500    -0.0001    12.2504     26.792     43.000 194311.000     30.000    49.3332   -20.0773   -30.0982   120.0962    -0.1480    -3.0001   -47.3151     0.0000   240.0000     0.0000     1.0000   300.0000   300.0000   -23.8873    78.5023    -1.9790    -1.4485    20.0000    20.0000    10.0000    20.0000    26.0000    10.0000    16.0000    20.0000    -0.0005     0.0005   159.4164   -41.1662     4.0337    26.9504    14.7000     2.0000     1.0000   299.9300     0.000
     13     2.5000     0.6500    -0.0001    11.9996     27.170     30.000 194311.000     30.000    49.5636   -20.0773   -30.2426   120.0962    -0.1480    -3.0001   -47.0791     0.0000   240.0000     0.0000     1.0000   300.0000   300.0000   -23.9410    78.8172    -1.9790    -1.4485    20.0000    20.0000    10.0000    20.0000    26.0000    10.0000    16.0000    20.0000    -0.0005     0.0005   159.4164   -41.1662     4.0337    26.6996    14.7000     2.0000     1.0000   300.0140     0.000
     14     2.5000     0.6500    -0.0001    11.7499     27.068     40.000 194311.000     30.000    49.7973   -20.0773   -30.3884   120.0962    -0.1480    -3.0001   -46.8422     0.0000   240.0000     0.0000     1.0000   300.0000   300.0000   -23.9936    79.1346    -1.9790    -1.4485    20.0000    20.0000    10.0000    20.0000    26.0000    10.0000    16.0000    20.0000    -0.0005     0.0005   159.4164   -41.1662     4.0338    26.4499    14.7000     2.0000     1.0000   300.0130     0.000
     15     2.4999     0.6500    -0.0001    11.5002     27.035     30.000 194311.000     30.000    50.0343   -20.0773   -30.5364   120.0962    -0.1480    -3.0001   -46.6044     0.0000   240.0000     0.0000     1.0000   300.0000   300.0000   -24.0445    79.4505    -1.9790    -1.4485    20.0000    20.0000    10.0000    20.0000    26.0000    10.0000    16.0000    20.0000    -0.0005     0.0005   159.4164   -41.1662     4.0336    26.2002    14.7000     2.0000     1.0000   300.0130     0.000
     16     2.5001     0.6500    -0.0001    11.2501     26.865     51.000 194311.000     30.000    50.2748   -20.0773   -30.6868   120.0962    -0.1480    -3.0001   -46.3655     0.0000   240.0000     0.0000     1.0000   300.0000   300.0000   -24.0953    79.7779    -1.9790    -1.4485    20.0000    20.0000    10.0000    20.0000    26.0000    10.0000    16.0000    20.0000    -0.0005     0.0005   159.4164   -41.1662     4.0339    25.9501    14.7000     2.0000     1.0000   299.9950     0.000
     17     2.5000     0.6500    -0.0001    10.9999     26.572     43.000 194311.000     30.000    50.5187   -20.0773   -30.8395   120.0962    -0.1480    -3.0001   -46.1257     0.0000   240.0000     0.0000     1.0000   300.0000   300.0000   -24.1444    80.0983    -1.9790    -1.4485    20.0000    20.0000    10.0000    20.0000    26.0000    10.0000    16.0000    20.0000    -0.0005     0.0005   159.4164   -41.1662     4.0337    25.6999    14.7000     2.0000     1.0000   300.0040     0.000
     18     2.5000     0.6500    -0.0001    10.7501     26.429     40.000 194311.000     30.000    50.7662   -20.0773   -30.9943   120.0962    -0.1480    -3.0001   -45.8849     0.0000   240.0000     0.0000     1.0000   300.0000   300.0000   -24.1924    80.4261    -1.9790    -1.4485    20.0000    20.0000    10.0000    20.0000    26.0000    10.0000    16.0000    20.0000    -0.0005     0.0005   159.4164   -41.1662     4.0338    25.4501    14.7000     2.0000     1.0000   300.0120     0.000
     19     2.5000     0.6500    -0.0001    10.5002     26.370     45.000 194311.000     30.000    51.0174   -20.0773   -31.1514   120.0962    -0.1480    -3.0001   -45.6430     0.0000   240.0000     0.0000     1.0000   300.0000   300.0000   -24.2394    80.7548    -1.9790    -1.4485    20.0000    20.0000    10.0000    20.0000    26.0000    10.0000    16.0000    20.0000    -0.0005     0.0005   159.4164   -41.1662     4.0338    25.2003    14.7000     2.0000     1.0000   299.9120     0.000
     20     2.5000     0.6500    -0.0001    10.2503     26.372     48.000 194311.000     30.000    51.2724   -20.0773   -31.3110   120.0962    -0.1480    -3.0001   -45.4002     0.0000   240.0000     0.0000     1.0000   300.0000   300.0000   -24.2846    81.0857    -1.9790    -1.4485    20.0000    20.0000    10.0000    20.0000    26.0000    10.0000    16.0000    20.0000    -0.0005     0.0005   159.4164   -41.1662     4.0337    24.9504    14.7000     2.0000     1.0000   300.0040     0.000
     21     2.5000     0.6500    -0.0001     9.9999     26.672     40.000 194311.000     30.000    51.5312   -20.0773   -31.4734   120.0962    -0.1480    -3.0001   -45.1562     0.0000   240.0000     0.0000     1.0000   300.0000   300.0000   -24.3295    81.4212    -1.9790    -1.4485    20.0000    20.0000    10.0000    20.0000    26.0000    10.0000    16.0000    20.0000    -0.0005     0.0005   159.4164   -41.1662     4.0337    24.6999    14.7000     2.0000     1.0000   299.9630     0.000
     22     2.5000     0.6500    -0.0001     9.7498     27.042     46.000 194311.000     30.000    51.7940   -20.0773   -31.6382   120.0962    -0.1480    -3.0001   -44.9112     0.0000   240.0000     0.0000     1.0000   300.0000   300.0000   -24.3724    81.7598    -1.9790    -1.4485    20.0000    20.0000    10.0000    20.0000    26.0000    10.0000    16.0000    20.0000    -0.0005     0.0005   159.4164   -41.1662     4.0337    24.4498    14.7000     2.0000     1.0000   299.9830     0.000
     23     2.5000     0.6500    -0.0001     9.4997     27.397     51.000 194311.000     30.000    52.0609   -20.0773   -31.8056   120.0962    -0.1480    -3.0001   -44.6652     0.0000   240.0000     0.0000     1.0000   300.0000   300.0000   -24.4144    82.1005    -1.9790    -1.4485    20.0000    20.0000    10.0000    20.0000    26.0000    10.0000    16.0000    20.0000    -0.0005     0.0005   159.4164   -41.1662     4.0337    24.1997    14.7000     2.0000     1.0000   300.0200     0.000
     24     2.5000     0.6500    -0.0001     9.2503     27.590     50.000 194311.000     30.000    52.3319   -20.0773   -31.9752   120.0962    -0.1480    -3.0001   -44.4180     0.0000   240.0000     0.0000     1.0000   300.0000   300.0000   -24.4545    82.4418    -1.9790    -1.4485    20.0000    20.0000    10.0000    20.0000    26.0000    10.0000    16.0000    20.0000    -0.0005     0.0005   159.4164   -41.1662     4.0337    23.9503    14.7000     2.0000     1.0000   300.0190     0.000
     25     2.5001     0.6500    -0.0001     8.9999     27.522     56.000 194311.000     30.000    52.6071   -20.0773   -32.1482   120.0962    -0.1480    -3.0001   -44.1697     0.0000   240.0000     0.0000     1.0000   300.0000   300.0000   -24.4934    82.7940    -1.9790    -1.4485    20.0000    20.0000    10.0000    20.0000    26.0000    10.0000    16.0000    20.0000    -0.0005     0.0005   159.4164   -41.1662     4.0338    23.6999    14.7000     2.0000     1.0000   300.0160     0.000
     26     2.5000     0.6500    -0.0001     8.7501     26.986     45.000 194311.000     30.000    52.8868   -20.0773   -32.3236   120.0962    -0.1480    -3.0001   -43.9203     0.0000   240.0000     0.0000     1.0000   300.0000   300.0000   -24.5308    83.1422    -1.9790    -1.4485    20.0000    20.0000    10.0000    20.0000    26.0000    10.0000    16.0000    20.0000    -0.0005     0.0005   159.4164   -41.1662     4.0338    23.4501    14.7000     2.0000     1.0000   300.0130     0.000
     27     2.5000     0.6500    -0.0001     8.5000     26.087     46.000 194311.000     30.000    53.1710   -20.0773   -32.5022   120.0962    -0.1480    -3.0001   -43.6697     0.0000   240.0000     0.0000     1.0000   300.0000   300.0000   -24.5669    83.4946    -1.9790    -1.4485    20.0000    20.0000    10.0000    20.0000    26.0000    10.0000    16.0000    20.0000    -0.0005     0.0005   159.4164   -41.1662     4.0337    23.2000    14.7000     2.0000     1.0000   300.0080     0.000
     28     2.5000     0.6500    -0.0001     8.2499     25.257     52.000 194311.000     30.000    53.4598   -20.0773   -32.6837   120.0962    -0.1480    -3.0001   -43.4180     0.0000   240.0000     0.0000     1.0000   300.0000   300.0000   -24.6014    83.8501    -1.9790    -1.4485    20.0000    20.0000    10.0000    20.0000    26.0000    10.0000    16.0000    20.0000    -0.0005     0.0005   159.4164   -41.1662     4.0337    22.9499    14.7000     2.0000     1.0000   299.9500     0.000
     29     2.5000     0.6500    -0.0001     7.9999     24.505     67.000 194311.000     30.000    53.7534   -20.0773   -32.8683   120.0962    -0.1480    -3.0001   -43.1651     0.0000   240.0000     0.0000     1.0000   300.0000   300.0000   -24.6344    84.2127    -1.9790    -1.4485    20.0000    20.0000    10.0000    20.0000    26.0000    10.0000    16.0000    20.0000    -0.0005     0.0005   159.4164   -41.1662     4.0338    22.6999    14.7000     2.0000     1.0000   300.0120     0.000
     30     2.5000     0.6500    -0.0001     7.7502     24.221     62.000 194311.000     30.000    54.0519   -20.0773   -33.0558   120.0962    -0.1480    -3.0001   -42.9109     0.0000   240.0000     0.0000     1.0000   300.0000   300.0000   -24.6650    84.5765    -1.9790    -1.4485    20.0000    20.0000    10.0000    20.0000    26.0000    10.0000    16.0000    20.0000    -0.0005     0.0005   159.4164   -41.1662     4.0338    22.4502    14.7000     2.0000     1.0000   299.9760     0.000
     31     2.5000     0.6500    -0.0001     7.4998     24.025     48.000 194311.000     30.000    54.3554   -20.0773   -33.2471   120.0962    -0.1480    -3.0001   -42.6556     0.0000   240.0000     0.0000     1.0000   300.0000   300.0000   -24.6947    84.9438    -1.9790    -1.4485    20.0000    20.0000    10.0000    20.0000    26.0000    10.0000    16.0000    20.0000    -0.0005     0.0005   159.4164   -41.1662     4.0337    22.1998    14.7000     2.0000     1.0000   300.0170     0.000
     32     2.5000     0.6500    -0.0001     7.2503     24.000     53.000 194311.000     30.000    54.6640   -20.0773   -33.4411   120.0962    -0.1480    -3.0001   -42.3989     0.0000   240.0000     0.0000     1.0000   300.0000   300.0000   -24.7222    85.3153    -1.9790    -1.4485    20.0000    20.0000    10.0000    20.0000    26.0000    10.0000    16.0000    20.0000    -0.0005     0.0005   159.4164   -41.1662     4.0338    21.9503    14.7000     2.0000     1.0000   300.0050     0.000
     33     2.5000     0.6500    -0.0001     6.9996     24.060     63.000 194311.000     30.000    54.9780   -20.0773   -33.6393   120.0962    -0.1480    -3.0001   -42.1410     0.0000   240.0000     0.0000     1.0000   300.0000   300.0000   -24.7482    85.6893    -1.9790    -1.4485    20.0000    20.0000    10.0000    20.0000    26.0000    10.0000    16.0000    20.0000    -0.0005     0.0005   159.4164   -41.1662     4.0337    21.6996    14.7000     2.0000     1.0000   300.0000     0.000
     34     2.5000     0.6500    -0.0001     6.7502     24.240     77.000 194311.000     30.000    55.2975   -20.0773   -33.8402   120.0962    -0.1480    -3.0001   -41.8818     0.0000   240.0000     0.0000     1.0000   300.0000   300.0000   -24.7721    86.0670    -1.9790    -1.4485    20.0000    20.0000    10.0000    20.0000    26.0000    10.0000    16.0000    20.0000    -0.0005     0.0005   159.4164   -41.1662     4.0337    21.4502    14.7000     2.0000     1.0000   300.0310     0.000
     35     2.4999     0.6500    -0.0001     6.5000     24.407     85.000 194311.000     30.000    55.6225   -20.0773   -34.0453   120.0962    -0.1480    -3.0001   -41.6214     0.0000   240.0000     0.0000     1.0000   300.0000   300.0000   -24.7943    86.4499    -1.9790    -1.4485    20.0000    20.0000    10.0000    20.0000    26.0000    10.0000    16.0000    20.0000    -0.0005     0.0005   159.4164   -41.1662     4.0336    21.2001    14.7000     2.0000     1.0000   300.0050     0.000
     36     2.4998     0.6509    -0.0001     6.2501     24.590     73.000 194311.000     30.000    55.9535   -20.0773   -34.2541   120.0962    -0.1480    -3.0001   -41.3595     0.0000   240.0000     0.0000     1.0000   300.0000   300.0000   -24.7943    86.8403    -1.9790    -1.4485    20.0000    20.0000    10.0000    20.0000    26.0000    10.0000    16.0000    20.0000    -0.0005     0.0005   159.4164   -41.1662     4.0337    20.9501    14.7000     2.0000     1.0000   300.0180     0.000
     37     2.5000     0.6500    -0.0001     6.0001     24.875     68.000 194311.000     30.000    56.2903   -20.0773   -34.4667   120.0962    -0.1480    -3.0001   -41.0963     0.0000   240.0000     0.0000     1.0000   300.0000   300.0000   -24.8315    87.2316    -1.9790    -1.4485    20.0000    20.0000    10.0000    20.0000    26.0000    10.0000    16.0000    20.0000    -0.0005     0.0005   159.4164   -41.1662     4.0337    20.7001    14.7000     2.0000     1.0000   300.0040     0.000
