# scan = 53
# date = 9/5/2024
# time = 8:40:07 AM
# proposal = 32905
# experiment = Effects of electric field on phonon dispersion and lifetimes of poled PMN-30PT
# experiment_number = 812
# command = scan h 1.5 k 0.35 l 0 e 15 0 0.25 preset mcu 30
# builtin_command = scan h 1.5 k 0.35 l 0 e 15 0 0.25 preset mcu 30
# users = George Yumnam, Michael Manley, Puspa Upreti, Raphael Hermann, SHAOFEI WANG
# local_contact = Songxue Chi
# scan_title = h1.5 k0.35 l0 scans
# monochromator = PG002
# analyzer = Pg002
# sense = -+-
# collimation = 48-40-40-120
# samplename = PMN-30PT
# sampletype = crystal
# samplemosaic = 30.000000
# latticeconstants = 4.023634,4.023634,4.023634,90.000000,90.000000,90.000000
# ubmatrix = -0.008055,-0.248252,-0.008588,-0.248328,0.007840,0.006285,-0.006007,0.008785,-0.248304
# mode = 0
# plane_normal = 0.034555,-0.025290,0.999083
# ubconf = UB04Sep2024_115522AM.ini
# preset_type = normal 
# preset_channel = mcu
# preset_value = 30.000000
# def_x = e
# def_y = detector
# col_headers = 
#   Pt.          h          k          l          e       time   detector    monitor        mcu focal_length         m1         m2   mcrystal       marc     mtrans     mfocus       ampl         dc       freq     output       temp     temp_2         s1         s2        sgl        sgu        bbb        bbl        bbr        bbt        bab        bal        bar        bat        stl        stu         a1         a2          q         ei         ef   ampl_out output_state        vti     sample
      1     1.5001     0.3500    -0.0000    15.0017     27.570     26.000 194311.000     30.000    46.9938   -20.0773   -28.6390   120.0962    -0.1480    -3.0001   -49.8518     0.0000     0.0000     0.0000     1.0000   300.0000   300.0000   -29.3530    39.1403    -1.9790    -1.4485    20.0000    20.0000    10.0000    20.0000    26.0000    10.0000    16.0000    20.0000    -0.0005     0.0005   159.4164   -41.1662     2.4054    29.7017    14.7000     2.0000     1.0000   300.0270     0.000
      2     1.5001     0.3500    -0.0000    14.7495     27.310     34.000 194311.000     30.000    47.1929   -20.0773   -28.7640   120.0962    -0.1480    -3.0001   -49.6254     0.0000     0.0000     0.0000     1.0000   300.0000   300.0000   -29.6491    39.3893    -1.9790    -1.4485    20.0000    20.0000    10.0000    20.0000    26.0000    10.0000    16.0000    20.0000    -0.0005     0.0005   159.4164   -41.1662     2.4054    29.4495    14.7000     2.0000     1.0000   300.0130     0.000
      3     1.5000     0.3500    -0.0000    14.4997     26.920     40.000 194311.000     30.000    47.3944   -20.0773   -28.8894   120.0962    -0.1480    -3.0001   -49.3982     0.0000     0.0000     0.0000     1.0000   300.0000   300.0000   -29.9454    39.6320    -1.9790    -1.4485    20.0000    20.0000    10.0000    20.0000    26.0000    10.0000    16.0000    20.0000    -0.0005     0.0005   159.4164   -41.1662     2.4052    29.1997    14.7000     2.0000     1.0000   300.0290     0.000
      4     1.5000     0.3500    -0.0000    14.2506     26.525     37.000 194311.000     30.000    47.5986   -20.0773   -29.0161   120.0962    -0.1480    -3.0001   -49.1702     0.0000     0.0000     0.0000     1.0000   300.0000   300.0000   -30.2417    39.8773    -1.9790    -1.4485    20.0000    20.0000    10.0000    20.0000    26.0000    10.0000    16.0000    20.0000    -0.0005     0.0005   159.4164   -41.1662     2.4053    28.9507    14.7000     2.0000     1.0000   299.9310     0.000
      5     1.5000     0.3500    -0.0000    13.9995     26.224     38.000 194311.000     30.000    47.8055   -20.0773   -29.1456   120.0962    -0.1480    -3.0001   -48.9414     0.0000     0.0000     0.0000     1.0000   300.0000   300.0000   -30.5376    40.1243    -1.9790    -1.4485    20.0000    20.0000    10.0000    20.0000    26.0000    10.0000    16.0000    20.0000    -0.0005     0.0005   159.4164   -41.1662     2.4053    28.6995    14.7000     2.0000     1.0000   300.0100     0.000
      6     1.5000     0.3500    -0.0000    13.7502     25.842     31.000 194311.000     30.000    48.0151   -20.0773   -29.2759   120.0962    -0.1480    -3.0001   -48.7117     0.0000     0.0000     0.0000     1.0000   300.0000   300.0000   -30.8341    40.3688    -1.9790    -1.4485    20.0000    20.0000    10.0000    20.0000    26.0000    10.0000    16.0000    20.0000    -0.0005     0.0005   159.4164   -41.1662     2.4053    28.4502    14.7000     2.0000     1.0000   299.9390     0.000
      7     1.5000     0.3500    -0.0000    13.5003     25.709     39.000 194311.000     30.000    48.2274   -20.0773   -29.4082   120.0962    -0.1480    -3.0001   -48.4811     0.0000     0.0000     0.0000     1.0000   300.0000   300.0000   -31.1296    40.6137    -1.9790    -1.4485    20.0000    20.0000    10.0000    20.0000    26.0000    10.0000    16.0000    20.0000    -0.0005     0.0005   159.4164   -41.1662     2.4053    28.2003    14.7000     2.0000     1.0000   300.0130     0.000
      8     1.5000     0.3500    -0.0000    13.2495     25.640     32.000 194311.000     30.000    48.4427   -20.0773   -29.5429   120.0962    -0.1480    -3.0001   -48.2497     0.0000     0.0000     0.0000     1.0000   300.0000   300.0000   -31.4262    40.8572    -1.9790    -1.4485    20.0000    20.0000    10.0000    20.0000    26.0000    10.0000    16.0000    20.0000    -0.0005     0.0005   159.4164   -41.1662     2.4053    27.9495    14.7000     2.0000     1.0000   300.0170     0.000
      9     1.5000     0.3500    -0.0000    13.0000     25.877     44.000 194311.000     30.000    48.6608   -20.0773   -29.6786   120.0962    -0.1480    -3.0001   -48.0174     0.0000     0.0000     0.0000     1.0000   300.0000   300.0000   -31.7225    41.1003    -1.9790    -1.4485    20.0000    20.0000    10.0000    20.0000    26.0000    10.0000    16.0000    20.0000    -0.0005     0.0005   159.4164   -41.1662     2.4053    27.7000    14.7000     2.0000     1.0000   300.0090     0.000
     10     1.5000     0.3500    -0.0000    12.7501     26.281     37.000 194311.000     30.000    48.8819   -20.0773   -29.8166   120.0962    -0.1480    -3.0001   -47.7842     0.0000     0.0000     0.0000     1.0000   300.0000   300.0000   -32.0192    41.3444    -1.9790    -1.4485    20.0000    20.0000    10.0000    20.0000    26.0000    10.0000    16.0000    20.0000    -0.0005     0.0005   159.4164   -41.1662     2.4053    27.4501    14.7000     2.0000     1.0000   300.0200     0.000
     11     1.5001     0.3500    -0.0000    12.5000     26.612     20.000 194311.000     30.000    49.1060   -20.0773   -29.9565   120.0962    -0.1480    -3.0001   -47.5501     0.0000     0.0000     0.0000     1.0000   300.0000   300.0000   -32.3155    41.5901    -1.9790    -1.4485    20.0000    20.0000    10.0000    20.0000    26.0000    10.0000    16.0000    20.0000    -0.0005     0.0005   159.4164   -41.1662     2.4054    27.2000    14.7000     2.0000     1.0000   300.0020     0.000
     12     1.5000     0.3500    -0.0000    12.2504     26.953     25.000 194311.000     30.000    49.3332   -20.0773   -30.0982   120.0962    -0.1480    -3.0001   -47.3151     0.0000     0.0000     0.0000     1.0000   300.0000   300.0000   -32.6123    41.8302    -1.9790    -1.4485    20.0000    20.0000    10.0000    20.0000    26.0000    10.0000    16.0000    20.0000    -0.0005     0.0005   159.4164   -41.1662     2.4053    26.9504    14.7000     2.0000     1.0000   300.0250     0.000
     13     1.5000     0.3500    -0.0000    11.9995     27.134     20.000 194311.000     30.000    49.5636   -20.0773   -30.2426   120.0962    -0.1480    -3.0001   -47.0791     0.0000     0.0000     0.0000     1.0000   300.0000   300.0000   -32.9095    42.0716    -1.9790    -1.4485    20.0000    20.0000    10.0000    20.0000    26.0000    10.0000    16.0000    20.0000    -0.0005     0.0005   159.4164   -41.1662     2.4052    26.6995    14.7000     2.0000     1.0000   300.0160     0.000
     14     1.5000     0.3500    -0.0000    11.7500     27.203     38.000 194311.000     30.000    49.7973   -20.0773   -30.3884   120.0962    -0.1480    -3.0001   -46.8422     0.0000     0.0000     0.0000     1.0000   300.0000   300.0000   -33.2066    42.3155    -1.9790    -1.4485    20.0000    20.0000    10.0000    20.0000    26.0000    10.0000    16.0000    20.0000    -0.0005     0.0005   159.4164   -41.1662     2.4053    26.4500    14.7000     2.0000     1.0000   300.0260     0.000
     15     1.5000     0.3500    -0.0000    11.5002     27.256     21.000 194311.000     30.000    50.0343   -20.0773   -30.5364   120.0962    -0.1480    -3.0001   -46.6044     0.0000     0.0000     0.0000     1.0000   300.0000   300.0000   -33.5045    42.5570    -1.9790    -1.4485    20.0000    20.0000    10.0000    20.0000    26.0000    10.0000    16.0000    20.0000    -0.0005     0.0005   159.4164   -41.1662     2.4053    26.2002    14.7000     2.0000     1.0000   300.0200     0.000
     16     1.5001     0.3500    -0.0000    11.2501     26.891     18.000 194311.000     30.000    50.2748   -20.0773   -30.6868   120.0962    -0.1480    -3.0001   -46.3655     0.0000     0.0000     0.0000     1.0000   300.0000   300.0000   -33.8021    42.7999    -1.9790    -1.4485    20.0000    20.0000    10.0000    20.0000    26.0000    10.0000    16.0000    20.0000    -0.0005     0.0005   159.4164   -41.1662     2.4054    25.9501    14.7000     2.0000     1.0000   300.0010     0.000
     17     1.5000     0.3500    -0.0000    10.9999     26.719     16.000 194311.000     30.000    50.5187   -20.0773   -30.8395   120.0962    -0.1480    -3.0001   -46.1257     0.0000     0.0000     0.0000     1.0000   300.0000   300.0000   -34.1005    43.0412    -1.9790    -1.4485    20.0000    20.0000    10.0000    20.0000    26.0000    10.0000    16.0000    20.0000    -0.0005     0.0005   159.4164   -41.1662     2.4053    25.6999    14.7000     2.0000     1.0000   300.0100     0.000
     18     1.5000     0.3500    -0.0000    10.7501     26.533     16.000 194311.000     30.000    50.7662   -20.0773   -30.9943   120.0962    -0.1480    -3.0001   -45.8849     0.0000     0.0000     0.0000     1.0000   300.0000   300.0000   -34.3993    43.2804    -1.9790    -1.4485    20.0000    20.0000    10.0000    20.0000    26.0000    10.0000    16.0000    20.0000    -0.0005     0.0005   159.4164   -41.1662     2.4053    25.4501    14.7000     2.0000     1.0000   300.0080     0.000
     19     1.5000     0.3500    -0.0000    10.5002     26.512     18.000 194311.000     30.000    51.0174   -20.0773   -31.1515   120.0962    -0.1480    -3.0001   -45.6430     0.0000     0.0000     0.0000     1.0000   300.0000   300.0000   -34.6980    43.5225    -1.9790    -1.4485    20.0000    20.0000    10.0000    20.0000    26.0000    10.0000    16.0000    20.0000    -0.0005     0.0005   159.4164   -41.1662     2.4053    25.2002    14.7000     2.0000     1.0000   299.9340     0.000
     20     1.5000     0.3500    -0.0000    10.2503     26.610     28.000 194311.000     30.000    51.2724   -20.0773   -31.3110   120.0962    -0.1480    -3.0001   -45.4002     0.0000     0.0000     0.0000     1.0000   300.0000   300.0000   -34.9975    43.7643    -1.9790    -1.4485    20.0000    20.0000    10.0000    20.0000    26.0000    10.0000    16.0000    20.0000    -0.0005     0.0005   159.4164   -41.1662     2.4053    24.9504    14.7000     2.0000     1.0000   300.0230     0.000
     21     1.5000     0.3500    -0.0000    10.0000     26.902     14.000 194311.000     30.000    51.5312   -20.0773   -31.4734   120.0962    -0.1480    -3.0001   -45.1562     0.0000     0.0000     0.0000     1.0000   300.0000   300.0000   -35.2975    44.0054    -1.9790    -1.4485    20.0000    20.0000    10.0000    20.0000    26.0000    10.0000    16.0000    20.0000    -0.0005     0.0005   159.4164   -41.1662     2.4053    24.7000    14.7000     2.0000     1.0000   299.9420     0.000
     22     1.5000     0.3500    -0.0000     9.7499     27.250     19.000 194311.000     30.000    51.7940   -20.0773   -31.6382   120.0962    -0.1480    -3.0001   -44.9112     0.0000     0.0000     0.0000     1.0000   300.0000   300.0000   -35.5984    44.2446    -1.9790    -1.4485    20.0000    20.0000    10.0000    20.0000    26.0000    10.0000    16.0000    20.0000    -0.0005     0.0005   159.4164   -41.1662     2.4053    24.4499    14.7000     2.0000     1.0000   300.0050     0.000
     23     1.5000     0.3500    -0.0000     9.4998     27.565     12.000 194311.000     30.000    52.0609   -20.0773   -31.8055   120.0962    -0.1480    -3.0001   -44.6652     0.0000     0.0000     0.0000     1.0000   300.0000   300.0000   -35.8991    44.4842    -1.9790    -1.4485    20.0000    20.0000    10.0000    20.0000    26.0000    10.0000    16.0000    20.0000    -0.0005     0.0005   159.4164   -41.1662     2.4052    24.1998    14.7000     2.0000     1.0000   300.0130     0.000
     24     1.5000     0.3500    -0.0000     9.2502     27.730     20.000 194311.000     30.000    52.3319   -20.0773   -31.9753   120.0962    -0.1480    -3.0001   -44.4180     0.0000     0.0000     0.0000     1.0000   300.0000   300.0000   -36.2005    44.7259    -1.9790    -1.4485    20.0000    20.0000    10.0000    20.0000    26.0000    10.0000    16.0000    20.0000    -0.0005     0.0005   159.4164   -41.1662     2.4053    23.9502    14.7000     2.0000     1.0000   300.0210     0.000
     25     1.5000     0.3500    -0.0000     9.0000     27.553     16.000 194311.000     30.000    52.6071   -20.0773   -32.1481   120.0962    -0.1480    -3.0001   -44.1697     0.0000     0.0000     0.0000     1.0000   300.0000   300.0000   -36.5027    44.9676    -1.9790    -1.4485    20.0000    20.0000    10.0000    20.0000    26.0000    10.0000    16.0000    20.0000    -0.0005     0.0005   159.4164   -41.1662     2.4053    23.7000    14.7000     2.0000     1.0000   300.0110     0.000
     26     1.5001     0.3500    -0.0000     8.7500     27.246     24.000 194311.000     30.000    52.8868   -20.0773   -32.3237   120.0962    -0.1480    -3.0001   -43.9203     0.0000     0.0000     0.0000     1.0000   300.0000   300.0000   -36.8059    45.2094    -1.9790    -1.4485    20.0000    20.0000    10.0000    20.0000    26.0000    10.0000    16.0000    20.0000    -0.0005     0.0005   159.4164   -41.1662     2.4054    23.4500    14.7000     2.0000     1.0000   300.0070     0.000
     27     1.5000     0.3500    -0.0000     8.5002     26.209     26.000 194311.000     30.000    53.1710   -20.0773   -32.5021   120.0962    -0.1480    -3.0001   -43.6697     0.0000     0.0000     0.0000     1.0000   300.0000   300.0000   -37.1094    45.4475    -1.9790    -1.4485    20.0000    20.0000    10.0000    20.0000    26.0000    10.0000    16.0000    20.0000    -0.0005     0.0005   159.4164   -41.1662     2.4053    23.2002    14.7000     2.0000     1.0000   300.0090     0.000
     28     1.5000     0.3500    -0.0000     8.2498     25.344     20.000 194311.000     30.000    53.4598   -20.0773   -32.6838   120.0962    -0.1480    -3.0001   -43.4180     0.0000     0.0000     0.0000     1.0000   300.0000   300.0000   -37.4140    45.6867    -1.9790    -1.4485    20.0000    20.0000    10.0000    20.0000    26.0000    10.0000    16.0000    20.0000    -0.0005     0.0005   159.4164   -41.1662     2.4052    22.9498    14.7000     2.0000     1.0000   300.0000     0.000
     29     1.5000     0.3500    -0.0000     8.0000     24.680     21.000 194311.000     30.000    53.7534   -20.0773   -32.8682   120.0962    -0.1480    -3.0001   -43.1651     0.0000     0.0000     0.0000     1.0000   300.0000   300.0000   -37.7186    45.9285    -1.9790    -1.4485    20.0000    20.0000    10.0000    20.0000    26.0000    10.0000    16.0000    20.0000    -0.0005     0.0005   159.4164   -41.1662     2.4053    22.7000    14.7000     2.0000     1.0000   300.0100     0.000
     30     1.5000     0.3500    -0.0000     7.7502     24.400     39.000 194311.000     30.000    54.0519   -20.0773   -33.0558   120.0962    -0.1480    -3.0001   -42.9109     0.0000     0.0000     0.0000     1.0000   300.0000   300.0000   -38.0244    46.1692    -1.9790    -1.4485    20.0000    20.0000    10.0000    20.0000    26.0000    10.0000    16.0000    20.0000    -0.0005     0.0005   159.4164   -41.1662     2.4053    22.4502    14.7000     2.0000     1.0000   300.0150     0.000
     31     1.5001     0.3500    -0.0000     7.4998     24.170     24.000 194311.000     30.000    54.3554   -20.0773   -33.2471   120.0962    -0.1480    -3.0001   -42.6556     0.0000     0.0000     0.0000     1.0000   300.0000   300.0000   -38.3313    46.4103    -1.9790    -1.4485    20.0000    20.0000    10.0000    20.0000    26.0000    10.0000    16.0000    20.0000    -0.0005     0.0005   159.4164   -41.1662     2.4054    22.1998    14.7000     2.0000     1.0000   300.0110     0.000
     32     1.5000     0.3500    -0.0000     7.2503     24.175     31.000 194311.000     30.000    54.6640   -20.0773   -33.4410   120.0962    -0.1480    -3.0001   -42.3989     0.0000     0.0000     0.0000     1.0000   300.0000   300.0000   -38.6391    46.6479    -1.9790    -1.4485    20.0000    20.0000    10.0000    20.0000    26.0000    10.0000    16.0000    20.0000    -0.0005     0.0005   159.4164   -41.1662     2.4053    21.9503    14.7000     2.0000     1.0000   299.9870     0.000
     33     1.5000     0.3500    -0.0000     6.9997     24.145     35.000 194311.000     30.000    54.9780   -20.0773   -33.6393   120.0962    -0.1480    -3.0001   -42.1410     0.0000     0.0000     0.0000     1.0000   300.0000   300.0000   -38.9469    46.8891    -1.9790    -1.4485    20.0000    20.0000    10.0000    20.0000    26.0000    10.0000    16.0000    20.0000    -0.0005     0.0005   159.4164   -41.1662     2.4053    21.6997    14.7000     2.0000     1.0000   300.0190     0.000
     34     1.5000     0.3500    -0.0000     6.7501     24.128     28.000 194311.000     30.000    55.2975   -20.0773   -33.8403   120.0962    -0.1480    -3.0001   -41.8818     0.0000     0.0000     0.0000     1.0000   300.0000   300.0000   -39.2569    47.1302    -1.9790    -1.4485    20.0000    20.0000    10.0000    20.0000    26.0000    10.0000    16.0000    20.0000    -0.0005     0.0005   159.4164   -41.1662     2.4053    21.4501    14.7000     2.0000     1.0000   300.0210     0.000
     35     1.5000     0.3500    -0.0000     6.4999     24.457     38.000 194311.000     30.000    55.6225   -20.0773   -34.0454   120.0962    -0.1480    -3.0001   -41.6214     0.0000     0.0000     0.0000     1.0000   300.0000   300.0000   -39.5673    47.3702    -1.9790    -1.4485    20.0000    20.0000    10.0000    20.0000    26.0000    10.0000    16.0000    20.0000    -0.0005     0.0005   159.4164   -41.1662     2.4053    21.1999    14.7000     2.0000     1.0000   300.0190     0.000
     36     1.5000     0.3500    -0.0000     6.2500     24.688     24.000 194311.000     30.000    55.9535   -20.0773   -34.2541   120.0962    -0.1480    -3.0001   -41.3595     0.0000     0.0000     0.0000     1.0000   300.0000   300.0000   -39.8791    47.6113    -1.9790    -1.4485    20.0000    20.0000    10.0000    20.0000    26.0000    10.0000    16.0000    20.0000    -0.0005     0.0005   159.4164   -41.1662     2.4053    20.9500    14.7000     2.0000     1.0000   299.9880     0.000
     37     1.5000     0.3500    -0.0000     6.0001     25.059     21.000 194311.000     30.000    56.2903   -20.0773   -34.4667   120.0962    -0.1480    -3.0001   -41.0963     0.0000     0.0000     0.0000     1.0000   300.0000   300.0000   -40.1911    47.8505    -1.9790    -1.4485    20.0000    20.0000    10.0000    20.0000    26.0000    10.0000    16.0000    20.0000    -0.0005     0.0005   159.4164   -41.1662     2.4053    20.7001    14.7000     2.0000     1.0000   299.9940     0.000
