# scan = 87
# date = 9/6/2024
# time = 4:23:26 AM
# proposal = 32905
# experiment = Effects of electric field on phonon dispersion and lifetimes of poled PMN-30PT
# experiment_number = 812
# command = scan h 2.5 k 0.2 l 0 e 15 0 0.25 preset mcu 30
# builtin_command = scan h 2.5 k 0.2 l 0 e 15 0 0.25 preset mcu 30
# users = George Yumnam, Michael Manley, Puspa Upreti, Raphael Hermann, SHAOFEI WANG
# local_contact = Songxue Chi
# scan_title = (2.5,0.2,0) X to M transverse mode scan at E 240 V
# monochromator = PG002
# analyzer = Pg002
# sense = -+-
# collimation = 48-40-40-120
# samplename = PMN-30PT
# sampletype = crystal
# samplemosaic = 30.000000
# latticeconstants = 4.023634,4.023634,4.023634,90.000000,90.000000,90.000000
# ubmatrix = -0.008055,-0.248252,-0.008588,-0.248328,0.007840,0.006285,-0.006007,0.008785,-0.248304
# mode = 0
# plane_normal = 0.034555,-0.025290,0.999083
# ubconf = UB04Sep2024_115522AM.ini
# preset_type = normal 
# preset_channel = mcu
# preset_value = 30.000000
# def_x = e
# def_y = detector
# col_headers = 
#   Pt.          h          k          l          e       time   detector    monitor        mcu focal_length         m1         m2   mcrystal       marc     mtrans     mfocus       ampl         dc       freq     output       temp     temp_2         s1         s2        sgl        sgu        bbb        bbl        bbr        bbt        bab        bal        bar        bat        stl        stu         a1         a2          q         ei         ef   ampl_out output_state        vti     sample
      1     2.5000     0.2000    -0.0001    15.0018     27.519     33.000 194311.000     30.000    46.9938   -20.0773   -28.6390   120.0962    -0.1480    -3.0001   -49.8518     0.0000   240.0000     0.0000     1.0000   300.0000   300.0000   -33.9846    72.4249    -1.9790    -1.4485    20.0000    20.0000    10.0000    20.0000    26.0000    10.0000    16.0000    20.0000    -0.0005     0.0005   159.4164   -41.1662     3.9164    29.7018    14.7000     2.0000     1.0000   300.0450     0.000
      2     2.5000     0.2000    -0.0001    14.7496     27.244     31.000 194311.000     30.000    47.1929   -20.0773   -28.7640   120.0962    -0.1480    -3.0001   -49.6254     0.0000   240.0000     0.0000     1.0000   300.0000   300.0000   -34.0606    72.7111    -1.9790    -1.4485    20.0000    20.0000    10.0000    20.0000    26.0000    10.0000    16.0000    20.0000    -0.0005     0.0005   159.4164   -41.1662     3.9164    29.4496    14.7000     2.0000     1.0000   300.0420     0.000
      3     2.5000     0.2000    -0.0001    14.4999     26.902     31.000 194311.000     30.000    47.3944   -20.0773   -28.8893   120.0962    -0.1480    -3.0001   -49.3982     0.0000   240.0000     0.0000     1.0000   300.0000   300.0000   -34.1361    72.9974    -1.9790    -1.4485    20.0000    20.0000    10.0000    20.0000    26.0000    10.0000    16.0000    20.0000    -0.0005     0.0005   159.4164   -41.1662     3.9164    29.1999    14.7000     2.0000     1.0000   300.0120     0.000
      4     2.5000     0.2000    -0.0001    14.2506     26.396     20.000 194311.000     30.000    47.5986   -20.0773   -29.0161   120.0962    -0.1480    -3.0001   -49.1702     0.0000   240.0000     0.0000     1.0000   300.0000   300.0000   -34.2107    73.2830    -1.9790    -1.4485    20.0000    20.0000    10.0000    20.0000    26.0000    10.0000    16.0000    20.0000    -0.0005     0.0005   159.4164   -41.1662     3.9164    28.9507    14.7000     2.0000     1.0000   300.0020     0.000
      5     2.5000     0.2000    -0.0001    13.9994     26.064     38.000 194311.000     30.000    47.8055   -20.0773   -29.1457   120.0962    -0.1480    -3.0001   -48.9414     0.0000   240.0000     0.0000     1.0000   300.0000   300.0000   -34.2846    73.5741    -1.9790    -1.4485    20.0000    20.0000    10.0000    20.0000    26.0000    10.0000    16.0000    20.0000    -0.0005     0.0005   159.4164   -41.1662     3.9164    28.6994    14.7000     2.0000     1.0000   300.0070     0.000
      6     2.5000     0.2000    -0.0001    13.7503     25.781     37.000 194311.000     30.000    48.0151   -20.0773   -29.2758   120.0962    -0.1480    -3.0001   -48.7117     0.0000   240.0000     0.0000     1.0000   300.0000   300.0000   -34.3580    73.8633    -1.9790    -1.4485    20.0000    20.0000    10.0000    20.0000    26.0000    10.0000    16.0000    20.0000    -0.0005     0.0005   159.4164   -41.1662     3.9164    28.4503    14.7000     2.0000     1.0000   300.0180     0.000
      7     2.5000     0.2000    -0.0001    13.5004     25.716     31.000 194311.000     30.000    48.2274   -20.0773   -29.4082   120.0962    -0.1480    -3.0001   -48.4811     0.0000   240.0000     0.0000     1.0000   300.0000   300.0000   -34.4304    74.1572    -1.9790    -1.4485    20.0000    20.0000    10.0000    20.0000    26.0000    10.0000    16.0000    20.0000    -0.0005     0.0005   159.4164   -41.1662     3.9165    28.2004    14.7000     2.0000     1.0000   299.9930     0.000
      8     2.5000     0.2000    -0.0001    13.2497     25.572     39.000 194311.000     30.000    48.4427   -20.0773   -29.5428   120.0962    -0.1480    -3.0001   -48.2497     0.0000   240.0000     0.0000     1.0000   300.0000   300.0000   -34.5020    74.4493    -1.9790    -1.4485    20.0000    20.0000    10.0000    20.0000    26.0000    10.0000    16.0000    20.0000    -0.0005     0.0005   159.4164   -41.1662     3.9163    27.9497    14.7000     2.0000     1.0000   300.0060     0.000
      9     2.5000     0.2000    -0.0001    13.0000     25.716     36.000 194311.000     30.000    48.6608   -20.0773   -29.6786   120.0962    -0.1480    -3.0001   -48.0174     0.0000   240.0000     0.0000     1.0000   300.0000   300.0000   -34.5730    74.7475    -1.9790    -1.4485    20.0000    20.0000    10.0000    20.0000    26.0000    10.0000    16.0000    20.0000    -0.0005     0.0005   159.4164   -41.1662     3.9164    27.7000    14.7000     2.0000     1.0000   299.9030     0.000
     10     2.5000     0.2000    -0.0001    12.7500     26.063     23.000 194311.000     30.000    48.8819   -20.0773   -29.8166   120.0962    -0.1480    -3.0001   -47.7842     0.0000   240.0000     0.0000     1.0000   300.0000   300.0000   -34.6430    75.0442    -1.9790    -1.4485    20.0000    20.0000    10.0000    20.0000    26.0000    10.0000    16.0000    20.0000    -0.0005     0.0005   159.4164   -41.1662     3.9163    27.4500    14.7000     2.0000     1.0000   300.0100     0.000
     11     2.5000     0.2000    -0.0001    12.4999     26.533     39.000 194311.000     30.000    49.1060   -20.0773   -29.9566   120.0962    -0.1480    -3.0001   -47.5501     0.0000   240.0000     0.0000     1.0000   300.0000   300.0000   -34.7124    75.3470    -1.9790    -1.4485    20.0000    20.0000    10.0000    20.0000    26.0000    10.0000    16.0000    20.0000    -0.0005     0.0005   159.4164   -41.1662     3.9164    27.1999    14.7000     2.0000     1.0000   299.9290     0.000
     12     2.5000     0.2000    -0.0001    12.2503     26.967     27.000 194311.000     30.000    49.3332   -20.0773   -30.0982   120.0962    -0.1480    -3.0001   -47.3151     0.0000   240.0000     0.0000     1.0000   300.0000   300.0000   -34.7807    75.6464    -1.9790    -1.4485    20.0000    20.0000    10.0000    20.0000    26.0000    10.0000    16.0000    20.0000    -0.0005     0.0005   159.4164   -41.1662     3.9163    26.9504    14.7000     2.0000     1.0000   300.0020     0.000
     13     2.5000     0.2000    -0.0001    11.9996     27.019     26.000 194311.000     30.000    49.5636   -20.0773   -30.2426   120.0962    -0.1480    -3.0001   -47.0791     0.0000   240.0000     0.0000     1.0000   300.0000   300.0000   -34.8484    75.9531    -1.9790    -1.4485    20.0000    20.0000    10.0000    20.0000    26.0000    10.0000    16.0000    20.0000    -0.0005     0.0005   159.4164   -41.1662     3.9164    26.6996    14.7000     2.0000     1.0000   300.0230     0.000
     14     2.4999     0.2000    -0.0001    11.7500     27.133     32.000 194311.000     30.000    49.7973   -20.0773   -30.3884   120.0962    -0.1480    -3.0001   -46.8422     0.0000   240.0000     0.0000     1.0000   300.0000   300.0000   -34.9149    76.2574    -1.9790    -1.4485    20.0000    20.0000    10.0000    20.0000    26.0000    10.0000    16.0000    20.0000    -0.0005     0.0005   159.4164   -41.1662     3.9163    26.4500    14.7000     2.0000     1.0000   300.0170     0.000
     15     2.5000     0.2000    -0.0001    11.5001     27.157     27.000 194311.000     30.000    50.0343   -20.0773   -30.5364   120.0962    -0.1480    -3.0001   -46.6044     0.0000   240.0000     0.0000     1.0000   300.0000   300.0000   -34.9808    76.5688    -1.9790    -1.4485    20.0000    20.0000    10.0000    20.0000    26.0000    10.0000    16.0000    20.0000    -0.0005     0.0005   159.4164   -41.1662     3.9164    26.2001    14.7000     2.0000     1.0000   300.0140     0.000
     16     2.5000     0.2000    -0.0001    11.2501     26.745     39.000 194311.000     30.000    50.2748   -20.0773   -30.6868   120.0962    -0.1480    -3.0001   -46.3655     0.0000   240.0000     0.0000     1.0000   300.0000   300.0000   -35.0454    76.8787    -1.9790    -1.4485    20.0000    20.0000    10.0000    20.0000    26.0000    10.0000    16.0000    20.0000    -0.0005     0.0005   159.4164   -41.1662     3.9164    25.9501    14.7000     2.0000     1.0000   300.0010     0.000
     17     2.5001     0.2000    -0.0001    11.0000     26.446     41.000 194311.000     30.000    50.5187   -20.0773   -30.8395   120.0962    -0.1480    -3.0001   -46.1257     0.0000   240.0000     0.0000     1.0000   300.0000   300.0000   -35.1095    77.1956    -1.9790    -1.4485    20.0000    20.0000    10.0000    20.0000    26.0000    10.0000    16.0000    20.0000    -0.0005     0.0005   159.4164   -41.1662     3.9165    25.7000    14.7000     2.0000     1.0000   300.0100     0.000
     18     2.5000     0.2000    -0.0001    10.7501     26.410     58.000 194311.000     30.000    50.7662   -20.0773   -30.9943   120.0962    -0.1480    -3.0001   -45.8849     0.0000   240.0000     0.0000     1.0000   300.0000   300.0000   -35.1722    77.5082    -1.9790    -1.4485    20.0000    20.0000    10.0000    20.0000    26.0000    10.0000    16.0000    20.0000    -0.0005     0.0005   159.4164   -41.1662     3.9164    25.4501    14.7000     2.0000     1.0000   300.0070     0.000
     19     2.5000     0.2000    -0.0001    10.5002     26.405     40.000 194311.000     30.000    51.0174   -20.0773   -31.1514   120.0962    -0.1480    -3.0001   -45.6430     0.0000   240.0000     0.0000     1.0000   300.0000   300.0000   -35.2343    77.8257    -1.9790    -1.4485    20.0000    20.0000    10.0000    20.0000    26.0000    10.0000    16.0000    20.0000    -0.0005     0.0005   159.4164   -41.1662     3.9164    25.2003    14.7000     2.0000     1.0000   300.0070     0.000
     20     2.5000     0.2000    -0.0001    10.2503     26.508     43.000 194311.000     30.000    51.2724   -20.0773   -31.3111   120.0962    -0.1480    -3.0001   -45.4002     0.0000   240.0000     0.0000     1.0000   300.0000   300.0000   -35.2946    78.1477    -1.9790    -1.4485    20.0000    20.0000    10.0000    20.0000    26.0000    10.0000    16.0000    20.0000    -0.0005     0.0005   159.4164   -41.1662     3.9164    24.9503    14.7000     2.0000     1.0000   299.8740     0.000
     21     2.4999     0.2000    -0.0001     9.9998     26.684     49.000 194311.000     30.000    51.5312   -20.0773   -31.4735   120.0962    -0.1480    -3.0001   -45.1562     0.0000   240.0000     0.0000     1.0000   300.0000   300.0000   -35.3546    78.4684    -1.9790    -1.4485    20.0000    20.0000    10.0000    20.0000    26.0000    10.0000    16.0000    20.0000    -0.0005     0.0005   159.4164   -41.1662     3.9163    24.6998    14.7000     2.0000     1.0000   300.0270     0.000
     22     2.5000     0.2000    -0.0001     9.7499     26.933     52.000 194311.000     30.000    51.7940   -20.0773   -31.6382   120.0962    -0.1480    -3.0001   -44.9112     0.0000   240.0000     0.0000     1.0000   300.0000   300.0000   -35.4131    78.7972    -1.9790    -1.4485    20.0000    20.0000    10.0000    20.0000    26.0000    10.0000    16.0000    20.0000    -0.0005     0.0005   159.4164   -41.1662     3.9164    24.4499    14.7000     2.0000     1.0000   299.9340     0.000
     23     2.5000     0.2000    -0.0001     9.4997     27.332     56.000 194311.000     30.000    52.0609   -20.0773   -31.8056   120.0962    -0.1480    -3.0001   -44.6652     0.0000   240.0000     0.0000     1.0000   300.0000   300.0000   -35.4706    79.1253    -1.9790    -1.4485    20.0000    20.0000    10.0000    20.0000    26.0000    10.0000    16.0000    20.0000    -0.0005     0.0005   159.4164   -41.1662     3.9164    24.1997    14.7000     2.0000     1.0000   300.0100     0.000
     24     2.5000     0.2000    -0.0001     9.2504     27.594     58.000 194311.000     30.000    52.3319   -20.0773   -31.9751   120.0962    -0.1480    -3.0001   -44.4180     0.0000   240.0000     0.0000     1.0000   300.0000   300.0000   -35.5266    79.4531    -1.9790    -1.4485    20.0000    20.0000    10.0000    20.0000    26.0000    10.0000    16.0000    20.0000    -0.0005     0.0005   159.4164   -41.1662     3.9163    23.9504    14.7000     2.0000     1.0000   300.0180     0.000
     25     2.5000     0.2000    -0.0001     8.9999     27.608     56.000 194311.000     30.000    52.6071   -20.0773   -32.1482   120.0962    -0.1480    -3.0001   -44.1697     0.0000   240.0000     0.0000     1.0000   300.0000   300.0000   -35.5820    79.7905    -1.9790    -1.4485    20.0000    20.0000    10.0000    20.0000    26.0000    10.0000    16.0000    20.0000    -0.0005     0.0005   159.4164   -41.1662     3.9164    23.6999    14.7000     2.0000     1.0000   300.0060     0.000
     26     2.5000     0.2000    -0.0001     8.7501     27.090     46.000 194311.000     30.000    52.8868   -20.0773   -32.3237   120.0962    -0.1480    -3.0001   -43.9203     0.0000   240.0000     0.0000     1.0000   300.0000   300.0000   -35.6358    80.1271    -1.9790    -1.4485    20.0000    20.0000    10.0000    20.0000    26.0000    10.0000    16.0000    20.0000    -0.0005     0.0005   159.4164   -41.1662     3.9164    23.4501    14.7000     2.0000     1.0000   300.0130     0.000
     27     2.5000     0.2000    -0.0001     8.5000     26.196     53.000 194311.000     30.000    53.1710   -20.0773   -32.5022   120.0962    -0.1480    -3.0001   -43.6697     0.0000   240.0000     0.0000     1.0000   300.0000   300.0000   -35.6881    80.4666    -1.9790    -1.4485    20.0000    20.0000    10.0000    20.0000    26.0000    10.0000    16.0000    20.0000    -0.0005     0.0005   159.4164   -41.1662     3.9164    23.2000    14.7000     2.0000     1.0000   300.0070     0.000
     28     2.5000     0.2000    -0.0001     8.2499     25.271     47.000 194311.000     30.000    53.4598   -20.0773   -32.6837   120.0962    -0.1480    -3.0001   -43.4180     0.0000   240.0000     0.0000     1.0000   300.0000   300.0000   -35.7395    80.8099    -1.9790    -1.4485    20.0000    20.0000    10.0000    20.0000    26.0000    10.0000    16.0000    20.0000    -0.0005     0.0005   159.4164   -41.1662     3.9164    22.9499    14.7000     2.0000     1.0000   300.0130     0.000
     29     2.5000     0.2000    -0.0001     8.0000     24.565     40.000 194311.000     30.000    53.7534   -20.0773   -32.8682   120.0962    -0.1480    -3.0001   -43.1651     0.0000   240.0000     0.0000     1.0000   300.0000   300.0000   -35.7891    81.1562    -1.9790    -1.4485    20.0000    20.0000    10.0000    20.0000    26.0000    10.0000    16.0000    20.0000    -0.0005     0.0005   159.4164   -41.1662     3.9164    22.7000    14.7000     2.0000     1.0000   299.8950     0.000
     30     2.5000     0.2000    -0.0001     7.7501     24.190     58.000 194311.000     30.000    54.0519   -20.0773   -33.0559   120.0962    -0.1480    -3.0001   -42.9109     0.0000   240.0000     0.0000     1.0000   300.0000   300.0000   -35.8374    81.5050    -1.9790    -1.4485    20.0000    20.0000    10.0000    20.0000    26.0000    10.0000    16.0000    20.0000    -0.0005     0.0005   159.4164   -41.1662     3.9164    22.4501    14.7000     2.0000     1.0000   300.0130     0.000
     31     2.5000     0.2000    -0.0001     7.4999     24.001     41.000 194311.000     30.000    54.3554   -20.0773   -33.2470   120.0962    -0.1480    -3.0001   -42.6556     0.0000   240.0000     0.0000     1.0000   300.0000   300.0000   -35.8846    81.8568    -1.9790    -1.4485    20.0000    20.0000    10.0000    20.0000    26.0000    10.0000    16.0000    20.0000    -0.0005     0.0005   159.4164   -41.1662     3.9164    22.1999    14.7000     2.0000     1.0000   299.8880     0.000
     32     2.5001     0.2000    -0.0001     7.2503     24.093     42.000 194311.000     30.000    54.6640   -20.0773   -33.4411   120.0962    -0.1480    -3.0001   -42.3989     0.0000   240.0000     0.0000     1.0000   300.0000   300.0000   -35.9296    82.2151    -1.9790    -1.4485    20.0000    20.0000    10.0000    20.0000    26.0000    10.0000    16.0000    20.0000    -0.0005     0.0005   159.4164   -41.1662     3.9165    21.9503    14.7000     2.0000     1.0000   300.0160     0.000
     33     2.5000     0.2000    -0.0001     6.9997     24.010     35.000 194311.000     30.000    54.9780   -20.0773   -33.6393   120.0962    -0.1480    -3.0001   -42.1410     0.0000   240.0000     0.0000     1.0000   300.0000   300.0000   -35.9741    82.5735    -1.9790    -1.4485    20.0000    20.0000    10.0000    20.0000    26.0000    10.0000    16.0000    20.0000    -0.0005     0.0005   159.4164   -41.1662     3.9164    21.6997    14.7000     2.0000     1.0000   299.8910     0.000
     34     2.5001     0.2000    -0.0001     6.7502     24.102     54.000 194311.000     30.000    55.2975   -20.0773   -33.8402   120.0962    -0.1480    -3.0001   -41.8818     0.0000   240.0000     0.0000     1.0000   300.0000   300.0000   -36.0156    82.9379    -1.9790    -1.4485    20.0000    20.0000    10.0000    20.0000    26.0000    10.0000    16.0000    20.0000    -0.0005     0.0005   159.4164   -41.1662     3.9165    21.4502    14.7000     2.0000     1.0000   300.0010     0.000
     35     2.5000     0.2000    -0.0001     6.4999     24.445     39.000 194311.000     30.000    55.6225   -20.0773   -34.0455   120.0962    -0.1480    -3.0001   -41.6214     0.0000   240.0000     0.0000     1.0000   300.0000   300.0000   -36.0562    83.3035    -1.9790    -1.4485    20.0000    20.0000    10.0000    20.0000    26.0000    10.0000    16.0000    20.0000    -0.0005     0.0005   159.4164   -41.1662     3.9164    21.1999    14.7000     2.0000     1.0000   299.8830     0.000
     36     2.5000     0.2000    -0.0001     6.2501     24.621     39.000 194311.000     30.000    55.9535   -20.0773   -34.2541   120.0962    -0.1480    -3.0001   -41.3595     0.0000   240.0000     0.0000     1.0000   300.0000   300.0000   -36.0953    83.6722    -1.9790    -1.4485    20.0000    20.0000    10.0000    20.0000    26.0000    10.0000    16.0000    20.0000    -0.0005     0.0005   159.4164   -41.1662     3.9163    20.9501    14.7000     2.0000     1.0000   300.0140     0.000
     37     2.5000     0.2000    -0.0001     6.0001     24.960     40.000 194311.000     30.000    56.2903   -20.0773   -34.4667   120.0962    -0.1480    -3.0001   -41.0963     0.0000   240.0000     0.0000     1.0000   300.0000   300.0000   -36.1321    84.0474    -1.9790    -1.4485    20.0000    20.0000    10.0000    20.0000    26.0000    10.0000    16.0000    20.0000    -0.0005     0.0005   159.4164   -41.1662     3.9164    20.7001    14.7000     2.0000     1.0000   299.8980     0.000
