# scan = 124
# date = 9/7/2024
# time = 2:37:03 AM
# proposal = 32905
# experiment = Effects of electric field on phonon dispersion and lifetimes of poled PMN-30PT
# experiment_number = 812
# command = scan h 2 k -0.3 l 0 e 20 0.5 0.25 preset mcu 30
# builtin_command = scan h 2 k -0.3 l 0 e 20 0.5 0.25 preset mcu 30
# users = George Yumnam, Michael Manley, Puspa Upreti, Raphael Hermann, SHAOFEI WANG
# local_contact = Songxue Chi
# scan_title = (2,-0.3,0) G to X transverse mode scan at E 400 V
# monochromator = PG002
# analyzer = Pg002
# sense = -+-
# collimation = 48-40-40-120
# samplename = PMN-30PT
# sampletype = crystal
# samplemosaic = 30.000000
# latticeconstants = 4.023634,4.023634,4.023634,90.000000,90.000000,90.000000
# ubmatrix = -0.008055,-0.248252,-0.008588,-0.248328,0.007840,0.006285,-0.006007,0.008785,-0.248304
# mode = 0
# plane_normal = 0.034555,-0.025290,0.999083
# ubconf = UB04Sep2024_115522AM.ini
# preset_type = normal 
# preset_channel = mcu
# preset_value = 30.000000
# def_x = e
# def_y = detector
# col_headers = 
#   Pt.          h          k          l          e       time   detector    monitor        mcu focal_length         m1         m2   mcrystal       marc     mtrans     mfocus       ampl         dc       freq     output       temp     temp_2         s1         s2        sgl        sgu        bbb        bbl        bbr        bbt        bab        bal        bar        bat        stl        stu         a1         a2          q         ei         ef   ampl_out output_state        vti     sample
      1     2.0000    -0.3001    -0.0001    20.0028     25.274     34.000 194311.000     30.000    43.4765   -20.0773   -26.4545   120.0962    -0.1480    -3.0001   -54.2224     0.0000   400.0000     0.0000     1.0000   300.0000   300.0000   -47.2703    50.4934    -1.9790    -1.4485    20.0000    20.0000    10.0000    20.0000    26.0000    10.0000    16.0000    20.0000    -0.0005     0.0005   159.4164   -41.1662     3.1580    34.7028    14.7000     2.0000     1.0000   300.0560     0.000
      2     2.0000    -0.3000    -0.0001    19.7499     25.168     28.000 194311.000     30.000    43.6339   -20.0773   -26.5532   120.0962    -0.1480    -3.0001   -54.0105     0.0000   400.0000     0.0000     1.0000   300.0000   300.0000   -47.4404    50.7391    -1.9790    -1.4485    20.0000    20.0000    10.0000    20.0000    26.0000    10.0000    16.0000    20.0000    -0.0005     0.0005   159.4164   -41.1662     3.1581    34.4499    14.7000     2.0000     1.0000   300.0390     0.000
      3     2.0001    -0.3000    -0.0001    19.4998     25.288     44.000 194311.000     30.000    43.7931   -20.0773   -26.6519   120.0962    -0.1480    -3.0001   -53.7978     0.0000   400.0000     0.0000     1.0000   300.0000   300.0000   -47.6104    50.9832    -1.9790    -1.4485    20.0000    20.0000    10.0000    20.0000    26.0000    10.0000    16.0000    20.0000    -0.0005     0.0005   159.4164   -41.1662     3.1583    34.1998    14.7000     2.0000     1.0000   300.0240     0.000
      4     2.0001    -0.3000    -0.0001    19.2499     25.329     41.000 194311.000     30.000    43.9541   -20.0773   -26.7516   120.0962    -0.1480    -3.0001   -53.5845     0.0000   400.0000     0.0000     1.0000   300.0000   300.0000   -47.7797    51.2229    -1.9790    -1.4485    20.0000    20.0000    10.0000    20.0000    26.0000    10.0000    16.0000    20.0000    -0.0005     0.0005   159.4164   -41.1662     3.1582    33.9499    14.7000     2.0000     1.0000   300.0110     0.000
      5     2.0000    -0.3000    -0.0001    19.0004     25.397     57.000 194311.000     30.000    44.1168   -20.0773   -26.8523   120.0962    -0.1480    -3.0001   -53.3706     0.0000   400.0000     0.0000     1.0000   300.0000   300.0000   -47.9494    51.4635    -1.9790    -1.4485    20.0000    20.0000    10.0000    20.0000    26.0000    10.0000    16.0000    20.0000    -0.0005     0.0005   159.4164   -41.1662     3.1581    33.7005    14.7000     2.0000     1.0000   300.0030     0.000
      6     2.0000    -0.3000    -0.0001    18.7494     25.683     45.000 194311.000     30.000    44.2813   -20.0773   -26.9548   120.0962    -0.1480    -3.0001   -53.1560     0.0000   400.0000     0.0000     1.0000   300.0000   300.0000   -48.1187    51.7054    -1.9790    -1.4485    20.0000    20.0000    10.0000    20.0000    26.0000    10.0000    16.0000    20.0000    -0.0005     0.0005   159.4164   -41.1662     3.1581    33.4494    14.7000     2.0000     1.0000   299.9590     0.000
      7     2.0000    -0.3000    -0.0001    18.5002     25.701     46.000 194311.000     30.000    44.4478   -20.0773   -27.0577   120.0962    -0.1480    -3.0001   -52.9407     0.0000   400.0000     0.0000     1.0000   300.0000   300.0000   -48.2873    51.9483    -1.9790    -1.4485    20.0000    20.0000    10.0000    20.0000    26.0000    10.0000    16.0000    20.0000    -0.0005     0.0005   159.4164   -41.1662     3.1581    33.2002    14.7000     2.0000     1.0000   300.0050     0.000
      8     2.0001    -0.3000    -0.0001    18.2501     25.929     37.000 194311.000     30.000    44.6161   -20.0773   -27.1621   120.0962    -0.1480    -3.0001   -52.7248     0.0000   400.0000     0.0000     1.0000   300.0000   300.0000   -48.4565    52.1924    -1.9790    -1.4485    20.0000    20.0000    10.0000    20.0000    26.0000    10.0000    16.0000    20.0000    -0.0005     0.0005   159.4164   -41.1662     3.1582    32.9501    14.7000     2.0000     1.0000   300.0140     0.000
      9     2.0000    -0.3000    -0.0001    17.9998     26.073     64.000 194311.000     30.000    44.7863   -20.0773   -27.2679   120.0962    -0.1480    -3.0001   -52.5081     0.0000   400.0000     0.0000     1.0000   300.0000   300.0000   -48.6246    52.4336    -1.9790    -1.4485    20.0000    20.0000    10.0000    20.0000    26.0000    10.0000    16.0000    20.0000    -0.0005     0.0005   159.4164   -41.1662     3.1580    32.6998    14.7000     2.0000     1.0000   300.0030     0.000
     10     2.0000    -0.3000    -0.0001    17.7506     26.344     47.000 194311.000     30.000    44.9585   -20.0773   -27.3744   120.0962    -0.1480    -3.0001   -52.2908     0.0000   400.0000     0.0000     1.0000   300.0000   300.0000   -48.7934    52.6785    -1.9790    -1.4485    20.0000    20.0000    10.0000    20.0000    26.0000    10.0000    16.0000    20.0000    -0.0005     0.0005   159.4164   -41.1662     3.1581    32.4506    14.7000     2.0000     1.0000   300.0150     0.000
     11     2.0000    -0.3000    -0.0001    17.4997     26.485     45.000 194311.000     30.000    45.1326   -20.0773   -27.4829   120.0962    -0.1480    -3.0001   -52.0728     0.0000   400.0000     0.0000     1.0000   300.0000   300.0000   -48.9612    52.9237    -1.9790    -1.4485    20.0000    20.0000    10.0000    20.0000    26.0000    10.0000    16.0000    20.0000    -0.0005     0.0005   159.4164   -41.1662     3.1581    32.1997    14.7000     2.0000     1.0000   300.0040     0.000
     12     2.0000    -0.3000    -0.0001    17.2499     26.374     45.000 194311.000     30.000    45.3089   -20.0773   -27.5923   120.0962    -0.1480    -3.0001   -51.8540     0.0000   400.0000     0.0000     1.0000   300.0000   300.0000   -49.1291    53.1686    -1.9790    -1.4485    20.0000    20.0000    10.0000    20.0000    26.0000    10.0000    16.0000    20.0000    -0.0005     0.0005   159.4164   -41.1662     3.1581    31.9499    14.7000     2.0000     1.0000   299.9890     0.000
     13     2.0000    -0.3000    -0.0001    17.0001     26.558     55.000 194311.000     30.000    45.4872   -20.0773   -27.7029   120.0962    -0.1480    -3.0001   -51.6345     0.0000   400.0000     0.0000     1.0000   300.0000   300.0000   -49.2972    53.4133    -1.9790    -1.4485    20.0000    20.0000    10.0000    20.0000    26.0000    10.0000    16.0000    20.0000    -0.0005     0.0005   159.4164   -41.1662     3.1581    31.7001    14.7000     2.0000     1.0000   299.9210     0.000
     14     2.0000    -0.3000    -0.0001    16.7497     26.618     76.000 194311.000     30.000    45.6676   -20.0773   -27.8152   120.0962    -0.1480    -3.0001   -51.4143     0.0000   400.0000     0.0000     1.0000   300.0000   300.0000   -49.4646    53.6598    -1.9790    -1.4485    20.0000    20.0000    10.0000    20.0000    26.0000    10.0000    16.0000    20.0000    -0.0005     0.0005   159.4164   -41.1662     3.1581    31.4497    14.7000     2.0000     1.0000   300.0140     0.000
     15     2.0000    -0.3000    -0.0001    16.5002     26.725     70.000 194311.000     30.000    45.8503   -20.0773   -27.9285   120.0962    -0.1480    -3.0001   -51.1934     0.0000   400.0000     0.0000     1.0000   300.0000   300.0000   -49.6324    53.9046    -1.9790    -1.4485    20.0000    20.0000    10.0000    20.0000    26.0000    10.0000    16.0000    20.0000    -0.0005     0.0005   159.4164   -41.1662     3.1581    31.2002    14.7000     2.0000     1.0000   300.0290     0.000
     16     2.0000    -0.3000    -0.0001    16.2498     26.888     51.000 194311.000     30.000    46.0351   -20.0773   -28.0435   120.0962    -0.1480    -3.0001   -50.9717     0.0000   400.0000     0.0000     1.0000   300.0000   300.0000   -49.7995    54.1517    -1.9790    -1.4485    20.0000    20.0000    10.0000    20.0000    26.0000    10.0000    16.0000    20.0000    -0.0005     0.0005   159.4164   -41.1662     3.1581    30.9498    14.7000     2.0000     1.0000   300.0140     0.000
     17     2.0001    -0.3000    -0.0001    15.9997     26.865     82.000 194311.000     30.000    46.2221   -20.0773   -28.1599   120.0962    -0.1480    -3.0001   -50.7492     0.0000   400.0000     0.0000     1.0000   300.0000   300.0000   -49.9666    54.4013    -1.9790    -1.4485    20.0000    20.0000    10.0000    20.0000    26.0000    10.0000    16.0000    20.0000    -0.0005     0.0005   159.4164   -41.1662     3.1582    30.6997    14.7000     2.0000     1.0000   300.0220     0.000
     18     2.0000    -0.3000    -0.0001    15.7504     26.971     90.000 194311.000     30.000    46.4115   -20.0773   -28.2773   120.0962    -0.1480    -3.0001   -50.5260     0.0000   400.0000     0.0000     1.0000   300.0000   300.0000   -50.1337    54.6460    -1.9790    -1.4485    20.0000    20.0000    10.0000    20.0000    26.0000    10.0000    16.0000    20.0000    -0.0005     0.0005   159.4164   -41.1662     3.1581    30.4504    14.7000     2.0000     1.0000   300.0200     0.000
     19     2.0000    -0.3000    -0.0001    15.4998     27.019    104.000 194311.000     30.000    46.6032   -20.0773   -28.3968   120.0962    -0.1480    -3.0001   -50.3021     0.0000   400.0000     0.0000     1.0000   300.0000   300.0000   -50.3001    54.8948    -1.9790    -1.4485    20.0000    20.0000    10.0000    20.0000    26.0000    10.0000    16.0000    20.0000    -0.0005     0.0005   159.4164   -41.1662     3.1581    30.1998    14.7000     2.0000     1.0000   300.0270     0.000
     20     2.0000    -0.3000    -0.0001    15.2501     27.176     93.000 194311.000     30.000    46.7972   -20.0773   -28.5175   120.0962    -0.1480    -3.0001   -50.0773     0.0000   400.0000     0.0000     1.0000   300.0000   300.0000   -50.4670    55.1448    -1.9790    -1.4485    20.0000    20.0000    10.0000    20.0000    26.0000    10.0000    16.0000    20.0000    -0.0005     0.0005   159.4164   -41.1662     3.1581    29.9501    14.7000     2.0000     1.0000   299.9990     0.000
     21     2.0001    -0.3000    -0.0001    15.0001     27.342     83.000 194311.000     30.000    46.9938   -20.0773   -28.6398   120.0962    -0.1480    -3.0001   -49.8518     0.0000   400.0000     0.0000     1.0000   300.0000   300.0000   -50.6336    55.3962    -1.9790    -1.4485    20.0000    20.0000    10.0000    20.0000    26.0000    10.0000    16.0000    20.0000    -0.0005     0.0005   159.4164   -41.1662     3.1582    29.7001    14.7000     2.0000     1.0000   300.0070     0.000
     22     2.0000    -0.3000    -0.0001    14.7497     27.067     74.000 194311.000     30.000    47.1929   -20.0773   -28.7639   120.0962    -0.1480    -3.0001   -49.6254     0.0000   400.0000     0.0000     1.0000   300.0000   300.0000   -50.7995    55.6452    -1.9790    -1.4485    20.0000    20.0000    10.0000    20.0000    26.0000    10.0000    16.0000    20.0000    -0.0005     0.0005   159.4164   -41.1662     3.1581    29.4497    14.7000     2.0000     1.0000   300.0100     0.000
     23     2.0000    -0.3000    -0.0001    14.5000     26.861     84.000 194311.000     30.000    47.3944   -20.0773   -28.8893   120.0962    -0.1480    -3.0001   -49.3982     0.0000   400.0000     0.0000     1.0000   300.0000   300.0000   -50.9660    55.8948    -1.9790    -1.4485    20.0000    20.0000    10.0000    20.0000    26.0000    10.0000    16.0000    20.0000    -0.0005     0.0005   159.4164   -41.1662     3.1581    29.2000    14.7000     2.0000     1.0000   300.0060     0.000
     24     2.0000    -0.3000    -0.0001    14.2506     26.552     66.000 194311.000     30.000    47.5986   -20.0773   -29.0161   120.0962    -0.1480    -3.0001   -49.1702     0.0000   400.0000     0.0000     1.0000   300.0000   300.0000   -51.1320    56.1475    -1.9790    -1.4485    20.0000    20.0000    10.0000    20.0000    26.0000    10.0000    16.0000    20.0000    -0.0005     0.0005   159.4164   -41.1662     3.1581    28.9507    14.7000     2.0000     1.0000   300.0070     0.000
     25     2.0001    -0.3000    -0.0001    13.9994     26.111     57.000 194311.000     30.000    47.8055   -20.0773   -29.1457   120.0962    -0.1480    -3.0001   -48.9414     0.0000   400.0000     0.0000     1.0000   300.0000   300.0000   -51.2976    56.4021    -1.9790    -1.4485    20.0000    20.0000    10.0000    20.0000    26.0000    10.0000    16.0000    20.0000    -0.0005     0.0005   159.4164   -41.1662     3.1582    28.6994    14.7000     2.0000     1.0000   299.9530     0.000
     26     2.0000    -0.3000    -0.0001    13.7503     25.749     62.000 194311.000     30.000    48.0151   -20.0773   -29.2758   120.0962    -0.1480    -3.0001   -48.7117     0.0000   400.0000     0.0000     1.0000   300.0000   300.0000   -51.4638    56.6521    -1.9790    -1.4485    20.0000    20.0000    10.0000    20.0000    26.0000    10.0000    16.0000    20.0000    -0.0005     0.0005   159.4164   -41.1662     3.1581    28.4503    14.7000     2.0000     1.0000   299.9980     0.000
     27     2.0000    -0.3000    -0.0001    13.5004     25.479     46.000 194311.000     30.000    48.2274   -20.0773   -29.4082   120.0962    -0.1480    -3.0001   -48.4811     0.0000   400.0000     0.0000     1.0000   300.0000   300.0000   -51.6291    56.9068    -1.9790    -1.4485    20.0000    20.0000    10.0000    20.0000    26.0000    10.0000    16.0000    20.0000    -0.0005     0.0005   159.4164   -41.1662     3.1581    28.2004    14.7000     2.0000     1.0000   300.0180     0.000
     28     2.0000    -0.3000    -0.0001    13.2496     25.542     32.000 194311.000     30.000    48.4427   -20.0773   -29.5428   120.0962    -0.1480    -3.0001   -48.2497     0.0000   400.0000     0.0000     1.0000   300.0000   300.0000   -51.7945    57.1617    -1.9790    -1.4485    20.0000    20.0000    10.0000    20.0000    26.0000    10.0000    16.0000    20.0000    -0.0005     0.0005   159.4164   -41.1662     3.1581    27.9496    14.7000     2.0000     1.0000   300.0010     0.000
     29     2.0001    -0.3000    -0.0001    13.0000     25.702     43.000 194311.000     30.000    48.6608   -20.0773   -29.6786   120.0962    -0.1480    -3.0001   -48.0174     0.0000   400.0000     0.0000     1.0000   300.0000   300.0000   -51.9597    57.4188    -1.9790    -1.4485    20.0000    20.0000    10.0000    20.0000    26.0000    10.0000    16.0000    20.0000    -0.0005     0.0005   159.4164   -41.1662     3.1582    27.7000    14.7000     2.0000     1.0000   300.0210     0.000
     30     2.0000    -0.3000    -0.0001    12.7499     25.950     31.000 194311.000     30.000    48.8819   -20.0773   -29.8167   120.0962    -0.1480    -3.0001   -47.7842     0.0000   400.0000     0.0000     1.0000   300.0000   300.0000   -52.1251    57.6727    -1.9790    -1.4485    20.0000    20.0000    10.0000    20.0000    26.0000    10.0000    16.0000    20.0000    -0.0005     0.0005   159.4164   -41.1662     3.1581    27.4499    14.7000     2.0000     1.0000   300.0010     0.000
     31     2.0000    -0.3000    -0.0001    12.4999     26.483     32.000 194311.000     30.000    49.1060   -20.0773   -29.9566   120.0962    -0.1480    -3.0001   -47.5501     0.0000   400.0000     0.0000     1.0000   300.0000   300.0000   -52.2903    57.9314    -1.9790    -1.4485    20.0000    20.0000    10.0000    20.0000    26.0000    10.0000    16.0000    20.0000    -0.0005     0.0005   159.4164   -41.1662     3.1581    27.1999    14.7000     2.0000     1.0000   299.9960     0.000
     32     2.0001    -0.3001    -0.0001    12.2504     26.676     30.000 194311.000     30.000    49.3332   -20.0773   -30.0982   120.0962    -0.1480    -3.0001   -47.3151     0.0000   400.0000     0.0000     1.0000   300.0000   300.0000   -52.4551    58.1922    -1.9790    -1.4485    20.0000    20.0000    10.0000    20.0000    26.0000    10.0000    16.0000    20.0000    -0.0005     0.0005   159.4164   -41.1662     3.1583    26.9504    14.7000     2.0000     1.0000   299.9420     0.000
     33     2.0000    -0.3000    -0.0001    11.9996     26.892     41.000 194311.000     30.000    49.5636   -20.0773   -30.2426   120.0962    -0.1480    -3.0001   -47.0791     0.0000   400.0000     0.0000     1.0000   300.0000   300.0000   -52.6196    58.4475    -1.9790    -1.4485    20.0000    20.0000    10.0000    20.0000    26.0000    10.0000    16.0000    20.0000    -0.0005     0.0005   159.4164   -41.1662     3.1581    26.6996    14.7000     2.0000     1.0000   300.0050     0.000
     34     2.0000    -0.3000    -0.0001    11.7500     27.000     23.000 194311.000     30.000    49.7973   -20.0773   -30.3884   120.0962    -0.1480    -3.0001   -46.8422     0.0000   400.0000     0.0000     1.0000   300.0000   300.0000   -52.7845    58.7080    -1.9790    -1.4485    20.0000    20.0000    10.0000    20.0000    26.0000    10.0000    16.0000    20.0000    -0.0005     0.0005   159.4164   -41.1662     3.1581    26.4500    14.7000     2.0000     1.0000   300.0090     0.000
     35     2.0001    -0.3000    -0.0001    11.5001     26.885     28.000 194311.000     30.000    50.0343   -20.0773   -30.5364   120.0962    -0.1480    -3.0001   -46.6044     0.0000   400.0000     0.0000     1.0000   300.0000   300.0000   -52.9491    58.9712    -1.9790    -1.4485    20.0000    20.0000    10.0000    20.0000    26.0000    10.0000    16.0000    20.0000    -0.0005     0.0005   159.4164   -41.1662     3.1582    26.2001    14.7000     2.0000     1.0000   300.0090     0.000
     36     2.0000    -0.3000    -0.0001    11.2501     26.850     37.000 194311.000     30.000    50.2748   -20.0773   -30.6868   120.0962    -0.1480    -3.0001   -46.3655     0.0000   400.0000     0.0000     1.0000   300.0000   300.0000   -53.1134    59.2304    -1.9790    -1.4485    20.0000    20.0000    10.0000    20.0000    26.0000    10.0000    16.0000    20.0000    -0.0005     0.0005   159.4164   -41.1662     3.1581    25.9501    14.7000     2.0000     1.0000   300.0250     0.000
     37     2.0000    -0.3000    -0.0001    11.0000     26.522     45.000 194311.000     30.000    50.5187   -20.0773   -30.8395   120.0962    -0.1480    -3.0001   -46.1257     0.0000   400.0000     0.0000     1.0000   300.0000   300.0000   -53.2774    59.4930    -1.9790    -1.4485    20.0000    20.0000    10.0000    20.0000    26.0000    10.0000    16.0000    20.0000    -0.0005     0.0005   159.4164   -41.1662     3.1581    25.7000    14.7000     2.0000     1.0000   299.9960     0.000
