# scan = 72
# date = 9/5/2024
# time = 5:39:28 PM
# proposal = 32905
# experiment = Effects of electric field on phonon dispersion and lifetimes of poled PMN-30PT
# experiment_number = 812
# command = scan h 2 k 0 l 0 e 20 0 0.25 preset mcu 30
# builtin_command = scan h 2 k 0 l 0 e 20 0 0.25 preset mcu 30
# users = George Yumnam, Michael Manley, Puspa Upreti, Raphael Hermann, SHAOFEI WANG
# local_contact = Songxue Chi
# scan_title = (2,0,0) G to X transverse mode scan at E 240 V
# monochromator = PG002
# analyzer = Pg002
# sense = -+-
# collimation = 48-40-40-120
# samplename = PMN-30PT
# sampletype = crystal
# samplemosaic = 30.000000
# latticeconstants = 4.023634,4.023634,4.023634,90.000000,90.000000,90.000000
# ubmatrix = -0.008055,-0.248252,-0.008588,-0.248328,0.007840,0.006285,-0.006007,0.008785,-0.248304
# mode = 0
# plane_normal = 0.034555,-0.025290,0.999083
# ubconf = UB04Sep2024_115522AM.ini
# preset_type = normal 
# preset_channel = mcu
# preset_value = 30.000000
# def_x = e
# def_y = detector
# col_headers = 
#   Pt.          h          k          l          e       time   detector    monitor        mcu focal_length         m1         m2   mcrystal       marc     mtrans     mfocus       ampl         dc       freq     output       temp     temp_2         s1         s2        sgl        sgu        bbb        bbl        bbr        bbt        bab        bal        bar        bat        stl        stu         a1         a2          q         ei         ef   ampl_out output_state        vti     sample
      1     1.9999    -0.0001    -0.0001    20.0026     25.400     32.000 194311.000     30.000    43.4765   -20.0773   -26.4546   120.0962    -0.1480    -3.0001   -54.2224     0.0000   240.0000     0.0000     1.0000   300.0000   300.0000   -38.7478    49.7397    -1.9790    -1.4485    20.0000    20.0000    10.0000    20.0000    26.0000    10.0000    16.0000    20.0000    -0.0005     0.0005   159.4164   -41.1662     3.1230    34.7026    14.7000     2.0000     1.0000   300.0380     0.000
      2     2.0000     0.0000    -0.0001    19.7498     25.299     31.000 194311.000     30.000    43.6339   -20.0773   -26.5533   120.0962    -0.1480    -3.0001   -54.0105     0.0000   240.0000     0.0000     1.0000   300.0000   300.0000   -38.9222    49.9877    -1.9790    -1.4485    20.0000    20.0000    10.0000    20.0000    26.0000    10.0000    16.0000    20.0000    -0.0005     0.0005   159.4164   -41.1662     3.1232    34.4498    14.7000     2.0000     1.0000   300.0150     0.000
      3     2.0000     0.0000    -0.0001    19.4997     25.289     34.000 194311.000     30.000    43.7931   -20.0773   -26.6520   120.0962    -0.1480    -3.0001   -53.7978     0.0000   240.0000     0.0000     1.0000   300.0000   300.0000   -39.0970    50.2285    -1.9790    -1.4485    20.0000    20.0000    10.0000    20.0000    26.0000    10.0000    16.0000    20.0000    -0.0005     0.0005   159.4164   -41.1662     3.1232    34.1997    14.7000     2.0000     1.0000   300.0110     0.000
      4     1.9999     0.0000    -0.0001    19.2501     25.434     32.000 194311.000     30.000    43.9541   -20.0773   -26.7516   120.0962    -0.1480    -3.0001   -53.5845     0.0000   240.0000     0.0000     1.0000   300.0000   300.0000   -39.2711    50.4659    -1.9790    -1.4485    20.0000    20.0000    10.0000    20.0000    26.0000    10.0000    16.0000    20.0000    -0.0005     0.0005   159.4164   -41.1662     3.1230    33.9501    14.7000     2.0000     1.0000   299.9520     0.000
      5     2.0000    -0.0000    -0.0001    19.0004     25.492     30.000 194311.000     30.000    44.1168   -20.0773   -26.8523   120.0962    -0.1480    -3.0001   -53.3706     0.0000   240.0000     0.0000     1.0000   300.0000   300.0000   -39.4449    50.7111    -1.9790    -1.4485    20.0000    20.0000    10.0000    20.0000    26.0000    10.0000    16.0000    20.0000    -0.0005     0.0005   159.4164   -41.1662     3.1232    33.7005    14.7000     2.0000     1.0000   299.9890     0.000
      6     2.0000     0.0000    -0.0001    18.7494     25.707     24.000 194311.000     30.000    44.2813   -20.0773   -26.9548   120.0962    -0.1480    -3.0001   -53.1560     0.0000   240.0000     0.0000     1.0000   300.0000   300.0000   -39.6191    50.9531    -1.9790    -1.4485    20.0000    20.0000    10.0000    20.0000    26.0000    10.0000    16.0000    20.0000    -0.0005     0.0005   159.4164   -41.1662     3.1231    33.4494    14.7000     2.0000     1.0000   299.8950     0.000
      7     2.0001     0.0000    -0.0001    18.5001     25.870     22.000 194311.000     30.000    44.4478   -20.0773   -27.0577   120.0962    -0.1480    -3.0001   -52.9407     0.0000   240.0000     0.0000     1.0000   300.0000   300.0000   -39.7923    51.1968    -1.9790    -1.4485    20.0000    20.0000    10.0000    20.0000    26.0000    10.0000    16.0000    20.0000    -0.0005     0.0005   159.4164   -41.1662     3.1232    33.2001    14.7000     2.0000     1.0000   300.0130     0.000
      8     2.0000    -0.0000    -0.0001    18.2502     26.083     27.000 194311.000     30.000    44.6161   -20.0773   -27.1621   120.0962    -0.1480    -3.0001   -52.7248     0.0000   240.0000     0.0000     1.0000   300.0000   300.0000   -39.9657    51.4387    -1.9790    -1.4485    20.0000    20.0000    10.0000    20.0000    26.0000    10.0000    16.0000    20.0000    -0.0005     0.0005   159.4164   -41.1662     3.1232    32.9502    14.7000     2.0000     1.0000   299.9360     0.000
      9     2.0000     0.0000    -0.0001    17.9998     26.069     42.000 194311.000     30.000    44.7863   -20.0773   -27.2679   120.0962    -0.1480    -3.0001   -52.5081     0.0000   240.0000     0.0000     1.0000   300.0000   300.0000   -40.1391    51.6792    -1.9790    -1.4485    20.0000    20.0000    10.0000    20.0000    26.0000    10.0000    16.0000    20.0000    -0.0005     0.0005   159.4164   -41.1662     3.1231    32.6998    14.7000     2.0000     1.0000   300.0160     0.000
     10     2.0000    -0.0000    -0.0001    17.7506     26.359     35.000 194311.000     30.000    44.9585   -20.0773   -27.3744   120.0962    -0.1480    -3.0001   -52.2908     0.0000   240.0000     0.0000     1.0000   300.0000   300.0000   -40.3119    51.9251    -1.9790    -1.4485    20.0000    20.0000    10.0000    20.0000    26.0000    10.0000    16.0000    20.0000    -0.0005     0.0005   159.4164   -41.1662     3.1232    32.4506    14.7000     2.0000     1.0000   300.0040     0.000
     11     2.0001     0.0000    -0.0001    17.4997     26.380     38.000 194311.000     30.000    45.1326   -20.0773   -27.4829   120.0962    -0.1480    -3.0001   -52.0728     0.0000   240.0000     0.0000     1.0000   300.0000   300.0000   -40.4845    52.1714    -1.9790    -1.4485    20.0000    20.0000    10.0000    20.0000    26.0000    10.0000    16.0000    20.0000    -0.0005     0.0005   159.4164   -41.1662     3.1233    32.1997    14.7000     2.0000     1.0000   300.0030     0.000
     12     2.0000     0.0000    -0.0001    17.2498     26.543     27.000 194311.000     30.000    45.3089   -20.0773   -27.5924   120.0962    -0.1480    -3.0001   -51.8540     0.0000   240.0000     0.0000     1.0000   300.0000   300.0000   -40.6576    52.4125    -1.9790    -1.4485    20.0000    20.0000    10.0000    20.0000    26.0000    10.0000    16.0000    20.0000    -0.0005     0.0005   159.4164   -41.1662     3.1231    31.9498    14.7000     2.0000     1.0000   300.0160     0.000
     13     2.0001    -0.0000    -0.0001    17.0001     26.693     38.000 194311.000     30.000    45.4872   -20.0773   -27.7029   120.0962    -0.1480    -3.0001   -51.6345     0.0000   240.0000     0.0000     1.0000   300.0000   300.0000   -40.8299    52.6590    -1.9790    -1.4485    20.0000    20.0000    10.0000    20.0000    26.0000    10.0000    16.0000    20.0000    -0.0005     0.0005   159.4164   -41.1662     3.1232    31.7001    14.7000     2.0000     1.0000   300.0120     0.000
     14     2.0000     0.0000    -0.0001    16.7497     26.834     27.000 194311.000     30.000    45.6676   -20.0773   -27.8152   120.0962    -0.1480    -3.0001   -51.4143     0.0000   240.0000     0.0000     1.0000   300.0000   300.0000   -41.0021    52.9027    -1.9790    -1.4485    20.0000    20.0000    10.0000    20.0000    26.0000    10.0000    16.0000    20.0000    -0.0005     0.0005   159.4164   -41.1662     3.1232    31.4497    14.7000     2.0000     1.0000   300.0190     0.000
     15     2.0000    -0.0000    -0.0001    16.5001     26.728     27.000 194311.000     30.000    45.8503   -20.0773   -27.9285   120.0962    -0.1480    -3.0001   -51.1934     0.0000   240.0000     0.0000     1.0000   300.0000   300.0000   -41.1744    53.1489    -1.9790    -1.4485    20.0000    20.0000    10.0000    20.0000    26.0000    10.0000    16.0000    20.0000    -0.0005     0.0005   159.4164   -41.1662     3.1232    31.2001    14.7000     2.0000     1.0000   300.0060     0.000
     16     2.0001    -0.0000    -0.0001    16.2499     26.780     28.000 194311.000     30.000    46.0351   -20.0773   -28.0435   120.0962    -0.1480    -3.0001   -50.9717     0.0000   240.0000     0.0000     1.0000   300.0000   300.0000   -41.3462    53.3970    -1.9790    -1.4485    20.0000    20.0000    10.0000    20.0000    26.0000    10.0000    16.0000    20.0000    -0.0005     0.0005   159.4164   -41.1662     3.1233    30.9499    14.7000     2.0000     1.0000   300.0160     0.000
     17     2.0000     0.0000    -0.0001    15.9996     26.942     30.000 194311.000     30.000    46.2221   -20.0773   -28.1599   120.0962    -0.1480    -3.0001   -50.7492     0.0000   240.0000     0.0000     1.0000   300.0000   300.0000   -41.5181    53.6393    -1.9790    -1.4485    20.0000    20.0000    10.0000    20.0000    26.0000    10.0000    16.0000    20.0000    -0.0005     0.0005   159.4164   -41.1662     3.1231    30.6996    14.7000     2.0000     1.0000   300.0010     0.000
     18     2.0000    -0.0000    -0.0001    15.7507     26.962     27.000 194311.000     30.000    46.4115   -20.0773   -28.2772   120.0962    -0.1480    -3.0001   -50.5260     0.0000   240.0000     0.0000     1.0000   300.0000   300.0000   -41.6896    53.8873    -1.9790    -1.4485    20.0000    20.0000    10.0000    20.0000    26.0000    10.0000    16.0000    20.0000    -0.0005     0.0005   159.4164   -41.1662     3.1232    30.4507    14.7000     2.0000     1.0000   299.9930     0.000
     19     2.0000    -0.0000    -0.0001    15.4997     27.103     32.000 194311.000     30.000    46.6032   -20.0773   -28.3969   120.0962    -0.1480    -3.0001   -50.3021     0.0000   240.0000     0.0000     1.0000   300.0000   300.0000   -41.8615    54.1363    -1.9790    -1.4485    20.0000    20.0000    10.0000    20.0000    26.0000    10.0000    16.0000    20.0000    -0.0005     0.0005   159.4164   -41.1662     3.1232    30.1997    14.7000     2.0000     1.0000   299.9410     0.000
     20     2.0000    -0.0000    -0.0001    15.2500     27.213     33.000 194311.000     30.000    46.7972   -20.0773   -28.5175   120.0962    -0.1480    -3.0001   -50.0773     0.0000   240.0000     0.0000     1.0000   300.0000   300.0000   -42.0326    54.3853    -1.9790    -1.4485    20.0000    20.0000    10.0000    20.0000    26.0000    10.0000    16.0000    20.0000    -0.0005     0.0005   159.4164   -41.1662     3.1232    29.9500    14.7000     2.0000     1.0000   300.0100     0.000
     21     2.0000    -0.0000    -0.0001    15.0003     27.327     39.000 194311.000     30.000    46.9938   -20.0773   -28.6397   120.0962    -0.1480    -3.0001   -49.8518     0.0000   240.0000     0.0000     1.0000   300.0000   300.0000   -42.2040    54.6324    -1.9790    -1.4485    20.0000    20.0000    10.0000    20.0000    26.0000    10.0000    16.0000    20.0000    -0.0005     0.0005   159.4164   -41.1662     3.1231    29.7003    14.7000     2.0000     1.0000   299.9800     0.000
     22     2.0000     0.0000    -0.0001    14.7496     27.193     35.000 194311.000     30.000    47.1929   -20.0773   -28.7640   120.0962    -0.1480    -3.0001   -49.6254     0.0000   240.0000     0.0000     1.0000   300.0000   300.0000   -42.3750    54.8824    -1.9790    -1.4485    20.0000    20.0000    10.0000    20.0000    26.0000    10.0000    16.0000    20.0000    -0.0005     0.0005   159.4164   -41.1662     3.1231    29.4496    14.7000     2.0000     1.0000   300.0200     0.000
     23     2.0000     0.0000    -0.0001    14.4999     26.909     32.000 194311.000     30.000    47.3944   -20.0773   -28.8893   120.0962    -0.1480    -3.0001   -49.3982     0.0000   240.0000     0.0000     1.0000   300.0000   300.0000   -42.5459    55.1332    -1.9790    -1.4485    20.0000    20.0000    10.0000    20.0000    26.0000    10.0000    16.0000    20.0000    -0.0005     0.0005   159.4164   -41.1662     3.1232    29.1999    14.7000     2.0000     1.0000   300.0260     0.000
     24     2.0001    -0.0000    -0.0001    14.2506     26.422     40.000 194311.000     30.000    47.5986   -20.0773   -29.0161   120.0962    -0.1480    -3.0001   -49.1702     0.0000   240.0000     0.0000     1.0000   300.0000   300.0000   -42.7167    55.3844    -1.9790    -1.4485    20.0000    20.0000    10.0000    20.0000    26.0000    10.0000    16.0000    20.0000    -0.0005     0.0005   159.4164   -41.1662     3.1232    28.9507    14.7000     2.0000     1.0000   300.0090     0.000
     25     2.0000     0.0000    -0.0001    13.9994     26.201     30.000 194311.000     30.000    47.8055   -20.0773   -29.1456   120.0962    -0.1480    -3.0001   -48.9414     0.0000   240.0000     0.0000     1.0000   300.0000   300.0000   -42.8875    55.6351    -1.9790    -1.4485    20.0000    20.0000    10.0000    20.0000    26.0000    10.0000    16.0000    20.0000    -0.0005     0.0005   159.4164   -41.1662     3.1232    28.6995    14.7000     2.0000     1.0000   300.0110     0.000
     26     2.0000    -0.0000    -0.0001    13.7502     25.725     34.000 194311.000     30.000    48.0151   -20.0773   -29.2759   120.0962    -0.1480    -3.0001   -48.7117     0.0000   240.0000     0.0000     1.0000   300.0000   300.0000   -43.0581    55.8859    -1.9790    -1.4485    20.0000    20.0000    10.0000    20.0000    26.0000    10.0000    16.0000    20.0000    -0.0005     0.0005   159.4164   -41.1662     3.1231    28.4502    14.7000     2.0000     1.0000   300.0150     0.000
     27     2.0000    -0.0000    -0.0001    13.5004     25.437     43.000 194311.000     30.000    48.2274   -20.0773   -29.4082   120.0962    -0.1480    -3.0001   -48.4811     0.0000   240.0000     0.0000     1.0000   300.0000   300.0000   -43.2286    56.1401    -1.9790    -1.4485    20.0000    20.0000    10.0000    20.0000    26.0000    10.0000    16.0000    20.0000    -0.0005     0.0005   159.4164   -41.1662     3.1232    28.2004    14.7000     2.0000     1.0000   300.0080     0.000
     28     2.0000    -0.0000    -0.0001    13.2496     25.646     33.000 194311.000     30.000    48.4427   -20.0773   -29.5428   120.0962    -0.1480    -3.0001   -48.2497     0.0000   240.0000     0.0000     1.0000   300.0000   300.0000   -43.3991    56.3942    -1.9790    -1.4485    20.0000    20.0000    10.0000    20.0000    26.0000    10.0000    16.0000    20.0000    -0.0005     0.0005   159.4164   -41.1662     3.1232    27.9496    14.7000     2.0000     1.0000   299.9990     0.000
     29     2.0000     0.0000    -0.0001    13.0000     25.755     35.000 194311.000     30.000    48.6608   -20.0773   -29.6786   120.0962    -0.1480    -3.0001   -48.0174     0.0000   240.0000     0.0000     1.0000   300.0000   300.0000   -43.5690    56.6458    -1.9790    -1.4485    20.0000    20.0000    10.0000    20.0000    26.0000    10.0000    16.0000    20.0000    -0.0005     0.0005   159.4164   -41.1662     3.1231    27.7000    14.7000     2.0000     1.0000   300.0210     0.000
     30     2.0000    -0.0000    -0.0001    12.7500     26.076     38.000 194311.000     30.000    48.8819   -20.0773   -29.8166   120.0962    -0.1480    -3.0001   -47.7842     0.0000   240.0000     0.0000     1.0000   300.0000   300.0000   -43.7394    56.9031    -1.9790    -1.4485    20.0000    20.0000    10.0000    20.0000    26.0000    10.0000    16.0000    20.0000    -0.0005     0.0005   159.4164   -41.1662     3.1232    27.4500    14.7000     2.0000     1.0000   299.9980     0.000
     31     2.0000     0.0000    -0.0001    12.5000     26.463     49.000 194311.000     30.000    49.1060   -20.0773   -29.9565   120.0962    -0.1480    -3.0001   -47.5501     0.0000   240.0000     0.0000     1.0000   300.0000   300.0000   -43.9091    57.1590    -1.9790    -1.4485    20.0000    20.0000    10.0000    20.0000    26.0000    10.0000    16.0000    20.0000    -0.0005     0.0005   159.4164   -41.1662     3.1232    27.2000    14.7000     2.0000     1.0000   300.0070     0.000
     32     2.0001    -0.0000    -0.0001    12.2505     26.789     60.000 194311.000     30.000    49.3332   -20.0773   -30.0981   120.0962    -0.1480    -3.0001   -47.3151     0.0000   240.0000     0.0000     1.0000   300.0000   300.0000   -44.0794    57.4164    -1.9790    -1.4485    20.0000    20.0000    10.0000    20.0000    26.0000    10.0000    16.0000    20.0000    -0.0005     0.0005   159.4164   -41.1662     3.1232    26.9505    14.7000     2.0000     1.0000   299.9080     0.000
     33     2.0000     0.0000    -0.0001    11.9999     27.110     60.000 194311.000     30.000    49.5636   -20.0773   -30.2424   120.0962    -0.1480    -3.0001   -47.0791     0.0000   240.0000     0.0000     1.0000   300.0000   300.0000   -44.2490    57.6718    -1.9790    -1.4485    20.0000    20.0000    10.0000    20.0000    26.0000    10.0000    16.0000    20.0000    -0.0005     0.0005   159.4164   -41.1662     3.1231    26.6999    14.7000     2.0000     1.0000   300.0110     0.000
     34     2.0000    -0.0000    -0.0001    11.7500     27.078     54.000 194311.000     30.000    49.7973   -20.0773   -30.3883   120.0962    -0.1480    -3.0001   -46.8422     0.0000   240.0000     0.0000     1.0000   300.0000   300.0000   -44.4188    57.9322    -1.9790    -1.4485    20.0000    20.0000    10.0000    20.0000    26.0000    10.0000    16.0000    20.0000    -0.0005     0.0005   159.4164   -41.1662     3.1232    26.4500    14.7000     2.0000     1.0000   300.0190     0.000
     35     2.0001    -0.0000    -0.0001    11.5002     27.029     63.000 194311.000     30.000    50.0343   -20.0773   -30.5364   120.0962    -0.1480    -3.0001   -46.6044     0.0000   240.0000     0.0000     1.0000   300.0000   300.0000   -44.5881    58.1922    -1.9790    -1.4485    20.0000    20.0000    10.0000    20.0000    26.0000    10.0000    16.0000    20.0000    -0.0005     0.0005   159.4164   -41.1662     3.1232    26.2002    14.7000     2.0000     1.0000   300.0050     0.000
     36     2.0000     0.0000    -0.0001    11.2501     26.882     61.000 194311.000     30.000    50.2748   -20.0773   -30.6868   120.0962    -0.1480    -3.0001   -46.3655     0.0000   240.0000     0.0000     1.0000   300.0000   300.0000   -44.7578    58.4499    -1.9790    -1.4485    20.0000    20.0000    10.0000    20.0000    26.0000    10.0000    16.0000    20.0000    -0.0005     0.0005   159.4164   -41.1662     3.1231    25.9501    14.7000     2.0000     1.0000   300.0020     0.000
     37     2.0000     0.0000    -0.0001    10.9999     26.648     63.000 194311.000     30.000    50.5187   -20.0773   -30.8395   120.0962    -0.1480    -3.0001   -46.1257     0.0000   240.0000     0.0000     1.0000   300.0000   300.0000   -44.9271    58.7127    -1.9790    -1.4485    20.0000    20.0000    10.0000    20.0000    26.0000    10.0000    16.0000    20.0000    -0.0005     0.0005   159.4164   -41.1662     3.1232    25.6999    14.7000     2.0000     1.0000   299.9990     0.000
