# scan = 172
# date = 9/8/2024
# time = 11:09:53 AM
# proposal = 32905
# experiment = Effects of electric field on phonon dispersion and lifetimes of poled PMN-30PT
# experiment_number = 812
# command = scan h 2.5 k 0.35 l 0 e 15 0.5 0.25 preset mcu 30
# builtin_command = scan h 2.5 k 0.35 l 0 e 15 0.5 0.25 preset mcu 30
# users = George Yumnam, Michael Manley, Puspa Upreti, Raphael Hermann, SHAOFEI WANG
# local_contact = Songxue Chi
# scan_title = (2.5,0.35,0) X to M transverse mode scan at 390 V after voltage breaks
# monochromator = PG002
# analyzer = Pg002
# sense = -+-
# collimation = 48-40-40-120
# samplename = PMN-30PT
# sampletype = crystal
# samplemosaic = 30.000000
# latticeconstants = 4.023634,4.023634,4.023634,90.000000,90.000000,90.000000
# ubmatrix = -0.008055,-0.248252,-0.008588,-0.248328,0.007840,0.006285,-0.006007,0.008785,-0.248304
# mode = 0
# plane_normal = 0.034555,-0.025290,0.999083
# ubconf = UB04Sep2024_115522AM.ini
# preset_type = normal 
# preset_channel = mcu
# preset_value = 30.000000
# def_x = e
# def_y = detector
# col_headers = 
#   Pt.          h          k          l          e       time   detector    monitor        mcu focal_length         m1         m2   mcrystal       marc     mtrans     mfocus       ampl         dc       freq     output       temp     temp_2         s1         s2        sgl        sgu        bbb        bbl        bbr        bbt        bab        bal        bar        bat        stl        stu         a1         a2          q         ei         ef   ampl_out output_state        vti     sample
      1     2.5000     0.3500    -0.0001    15.0018     27.472     47.000 194311.000     30.000    46.9938   -20.0773   -28.6390   120.0962    -0.1480    -3.0001   -49.8518     0.0000   390.0000     0.0000     1.0000   300.0000   300.0000   -30.4298    73.0229    -1.9790    -1.4485    20.0000    20.0000    10.0000    20.0000    26.0000    10.0000    16.0000    20.0000    -0.0005     0.0005   159.4164   -41.1662     3.9420    29.7018    14.7000     2.0000     1.0000   300.0080     0.000
      2     2.5000     0.3500    -0.0001    14.7496     27.156     48.000 194311.000     30.000    47.1929   -20.0773   -28.7640   120.0962    -0.1480    -3.0001   -49.6254     0.0000   390.0000     0.0000     1.0000   300.0000   300.0000   -30.5036    73.3115    -1.9790    -1.4485    20.0000    20.0000    10.0000    20.0000    26.0000    10.0000    16.0000    20.0000    -0.0005     0.0005   159.4164   -41.1662     3.9420    29.4496    14.7000     2.0000     1.0000   300.0020     0.000
      3     2.5001     0.3500    -0.0001    14.4998     26.658     43.000 194311.000     30.000    47.3944   -20.0773   -28.8894   120.0962    -0.1480    -3.0001   -49.3982     0.0000   390.0000     0.0000     1.0000   300.0000   300.0000   -30.5757    73.6003    -1.9790    -1.4485    20.0000    20.0000    10.0000    20.0000    26.0000    10.0000    16.0000    20.0000    -0.0005     0.0005   159.4164   -41.1662     3.9421    29.1998    14.7000     2.0000     1.0000   300.0280     0.000
      4     2.5000     0.3500    -0.0001    14.2506     26.220     51.000 194311.000     30.000    47.5986   -20.0773   -29.0161   120.0962    -0.1480    -3.0001   -49.1702     0.0000   390.0000     0.0000     1.0000   300.0000   300.0000   -30.6475    73.8865    -1.9790    -1.4485    20.0000    20.0000    10.0000    20.0000    26.0000    10.0000    16.0000    20.0000    -0.0005     0.0005   159.4164   -41.1662     3.9420    28.9507    14.7000     2.0000     1.0000   300.0130     0.000
      5     2.5001     0.3500    -0.0001    13.9994     25.878     53.000 194311.000     30.000    47.8055   -20.0773   -29.1457   120.0962    -0.1480    -3.0001   -48.9414     0.0000   390.0000     0.0000     1.0000   300.0000   300.0000   -30.7191    74.1812    -1.9790    -1.4485    20.0000    20.0000    10.0000    20.0000    26.0000    10.0000    16.0000    20.0000    -0.0005     0.0005   159.4164   -41.1662     3.9421    28.6994    14.7000     2.0000     1.0000   299.9420     0.000
      6     2.5000     0.3500    -0.0001    13.7503     25.444     48.000 194311.000     30.000    48.0151   -20.0773   -29.2758   120.0962    -0.1480    -3.0001   -48.7117     0.0000   390.0000     0.0000     1.0000   300.0000   300.0000   -30.7891    74.4696    -1.9790    -1.4485    20.0000    20.0000    10.0000    20.0000    26.0000    10.0000    16.0000    20.0000    -0.0005     0.0005   159.4164   -41.1662     3.9420    28.4503    14.7000     2.0000     1.0000   300.0100     0.000
      7     2.5001     0.3500    -0.0001    13.5004     25.296     51.000 194311.000     30.000    48.2274   -20.0773   -29.4082   120.0962    -0.1480    -3.0001   -48.4811     0.0000   390.0000     0.0000     1.0000   300.0000   300.0000   -30.8589    74.7684    -1.9790    -1.4485    20.0000    20.0000    10.0000    20.0000    26.0000    10.0000    16.0000    20.0000    -0.0005     0.0005   159.4164   -41.1662     3.9422    28.2004    14.7000     2.0000     1.0000   300.0150     0.000
      8     2.5000     0.3500    -0.0001    13.2496     25.431     49.000 194311.000     30.000    48.4427   -20.0773   -29.5428   120.0962    -0.1480    -3.0001   -48.2497     0.0000   390.0000     0.0000     1.0000   300.0000   300.0000   -30.9271    75.0609    -1.9790    -1.4485    20.0000    20.0000    10.0000    20.0000    26.0000    10.0000    16.0000    20.0000    -0.0005     0.0005   159.4164   -41.1662     3.9420    27.9496    14.7000     2.0000     1.0000   299.9920     0.000
      9     2.5000     0.3500    -0.0001    13.0000     25.554     47.000 194311.000     30.000    48.6608   -20.0773   -29.6786   120.0962    -0.1480    -3.0001   -48.0174     0.0000   390.0000     0.0000     1.0000   300.0000   300.0000   -30.9956    75.3603    -1.9790    -1.4485    20.0000    20.0000    10.0000    20.0000    26.0000    10.0000    16.0000    20.0000    -0.0005     0.0005   159.4164   -41.1662     3.9420    27.7000    14.7000     2.0000     1.0000   300.0220     0.000
     10     2.5000     0.3500    -0.0001    12.7500     25.862     53.000 194311.000     30.000    48.8819   -20.0773   -29.8166   120.0962    -0.1480    -3.0001   -47.7842     0.0000   390.0000     0.0000     1.0000   300.0000   300.0000   -31.0624    75.6586    -1.9790    -1.4485    20.0000    20.0000    10.0000    20.0000    26.0000    10.0000    16.0000    20.0000    -0.0005     0.0005   159.4164   -41.1662     3.9419    27.4500    14.7000     2.0000     1.0000   300.0190     0.000
     11     2.5000     0.3500    -0.0001    12.4997     26.331     41.000 194311.000     30.000    49.1060   -20.0773   -29.9567   120.0962    -0.1480    -3.0001   -47.5501     0.0000   390.0000     0.0000     1.0000   300.0000   300.0000   -31.1291    75.9633    -1.9790    -1.4485    20.0000    20.0000    10.0000    20.0000    26.0000    10.0000    16.0000    20.0000    -0.0005     0.0005   159.4164   -41.1662     3.9420    27.1997    14.7000     2.0000     1.0000   299.9960     0.000
     12     2.5000     0.3500    -0.0001    12.2505     26.653     52.000 194311.000     30.000    49.3332   -20.0773   -30.0981   120.0962    -0.1480    -3.0001   -47.3151     0.0000   390.0000     0.0000     1.0000   300.0000   300.0000   -31.1944    76.2655    -1.9790    -1.4485    20.0000    20.0000    10.0000    20.0000    26.0000    10.0000    16.0000    20.0000    -0.0005     0.0005   159.4164   -41.1662     3.9420    26.9505    14.7000     2.0000     1.0000   300.0070     0.000
     13     2.5001     0.3500    -0.0001    11.9996     26.770     49.000 194311.000     30.000    49.5636   -20.0773   -30.2426   120.0962    -0.1480    -3.0001   -47.0791     0.0000   390.0000     0.0000     1.0000   300.0000   300.0000   -31.2586    76.5761    -1.9790    -1.4485    20.0000    20.0000    10.0000    20.0000    26.0000    10.0000    16.0000    20.0000    -0.0005     0.0005   159.4164   -41.1662     3.9421    26.6996    14.7000     2.0000     1.0000   299.9970     0.000
     14     2.5000     0.3500    -0.0001    11.7500     26.910     33.000 194311.000     30.000    49.7973   -20.0773   -30.3883   120.0962    -0.1480    -3.0001   -46.8422     0.0000   390.0000     0.0000     1.0000   300.0000   300.0000   -31.3221    76.8814    -1.9790    -1.4485    20.0000    20.0000    10.0000    20.0000    26.0000    10.0000    16.0000    20.0000    -0.0005     0.0005   159.4164   -41.1662     3.9420    26.4500    14.7000     2.0000     1.0000   300.0080     0.000
     15     2.5001     0.3500    -0.0001    11.5001     26.767     34.000 194311.000     30.000    50.0343   -20.0773   -30.5364   120.0962    -0.1480    -3.0001   -46.6044     0.0000   390.0000     0.0000     1.0000   300.0000   300.0000   -31.3848    77.1946    -1.9790    -1.4485    20.0000    20.0000    10.0000    20.0000    26.0000    10.0000    16.0000    20.0000    -0.0005     0.0005   159.4164   -41.1662     3.9421    26.2001    14.7000     2.0000     1.0000   300.0030     0.000
     16     2.5000     0.3500    -0.0001    11.2501     26.625     39.000 194311.000     30.000    50.2748   -20.0773   -30.6868   120.0962    -0.1480    -3.0001   -46.3655     0.0000   390.0000     0.0000     1.0000   300.0000   300.0000   -31.4468    77.5066    -1.9790    -1.4485    20.0000    20.0000    10.0000    20.0000    26.0000    10.0000    16.0000    20.0000    -0.0005     0.0005   159.4164   -41.1662     3.9420    25.9501    14.7000     2.0000     1.0000   300.0120     0.000
     17     2.5000     0.3500    -0.0001    10.9999     26.377     40.000 194311.000     30.000    50.5187   -20.0773   -30.8395   120.0962    -0.1480    -3.0001   -46.1257     0.0000   390.0000     0.0000     1.0000   300.0000   300.0000   -31.5071    77.8224    -1.9790    -1.4485    20.0000    20.0000    10.0000    20.0000    26.0000    10.0000    16.0000    20.0000    -0.0005     0.0005   159.4164   -41.1662     3.9420    25.6999    14.7000     2.0000     1.0000   300.0140     0.000
     18     2.5000     0.3500    -0.0001    10.7501     26.194     53.000 194311.000     30.000    50.7662   -20.0773   -30.9943   120.0962    -0.1480    -3.0001   -45.8849     0.0000   390.0000     0.0000     1.0000   300.0000   300.0000   -31.5670    78.1409    -1.9790    -1.4485    20.0000    20.0000    10.0000    20.0000    26.0000    10.0000    16.0000    20.0000    -0.0005     0.0005   159.4164   -41.1662     3.9420    25.4501    14.7000     2.0000     1.0000   300.0110     0.000
     19     2.5000     0.3500    -0.0001    10.5002     26.113     48.000 194311.000     30.000    51.0174   -20.0773   -31.1515   120.0962    -0.1480    -3.0001   -45.6430     0.0000   390.0000     0.0000     1.0000   300.0000   300.0000   -31.6254    78.4588    -1.9790    -1.4485    20.0000    20.0000    10.0000    20.0000    26.0000    10.0000    16.0000    20.0000    -0.0005     0.0005   159.4164   -41.1662     3.9419    25.2002    14.7000     2.0000     1.0000   300.0100     0.000
     20     2.5001     0.3500    -0.0001    10.2504     26.268     51.000 194311.000     30.000    51.2724   -20.0773   -31.3110   120.0962    -0.1480    -3.0001   -45.4002     0.0000   390.0000     0.0000     1.0000   300.0000   300.0000   -31.6830    78.7865    -1.9790    -1.4485    20.0000    20.0000    10.0000    20.0000    26.0000    10.0000    16.0000    20.0000    -0.0005     0.0005   159.4164   -41.1662     3.9421    24.9504    14.7000     2.0000     1.0000   300.0170     0.000
     21     2.5000     0.3500    -0.0001     9.9999     26.506     46.000 194311.000     30.000    51.5312   -20.0773   -31.4735   120.0962    -0.1480    -3.0001   -45.1562     0.0000   390.0000     0.0000     1.0000   300.0000   300.0000   -31.7394    79.1094    -1.9790    -1.4485    20.0000    20.0000    10.0000    20.0000    26.0000    10.0000    16.0000    20.0000    -0.0005     0.0005   159.4164   -41.1662     3.9420    24.6999    14.7000     2.0000     1.0000   300.0000     0.000
     22     2.5000     0.3500    -0.0001     9.7499     26.780     26.000 194311.000     30.000    51.7940   -20.0773   -31.6382   120.0962    -0.1480    -3.0001   -44.9112     0.0000   390.0000     0.0000     1.0000   300.0000   300.0000   -31.7945    79.4359    -1.9790    -1.4485    20.0000    20.0000    10.0000    20.0000    26.0000    10.0000    16.0000    20.0000    -0.0005     0.0005   159.4164   -41.1662     3.9419    24.4499    14.7000     2.0000     1.0000   300.0080     0.000
     23     2.5001     0.3500    -0.0001     9.4998     27.220     49.000 194311.000     30.000    52.0609   -20.0773   -31.8055   120.0962    -0.1480    -3.0001   -44.6652     0.0000   390.0000     0.0000     1.0000   300.0000   300.0000   -31.8484    79.7712    -1.9790    -1.4485    20.0000    20.0000    10.0000    20.0000    26.0000    10.0000    16.0000    20.0000    -0.0005     0.0005   159.4164   -41.1662     3.9421    24.1998    14.7000     2.0000     1.0000   300.0100     0.000
     24     2.5000     0.3500    -0.0001     9.2502     27.420     39.000 194311.000     30.000    52.3319   -20.0773   -31.9752   120.0962    -0.1480    -3.0001   -44.4180     0.0000   390.0000     0.0000     1.0000   300.0000   300.0000   -31.9011    80.1025    -1.9790    -1.4485    20.0000    20.0000    10.0000    20.0000    26.0000    10.0000    16.0000    20.0000    -0.0005     0.0005   159.4164   -41.1662     3.9420    23.9503    14.7000     2.0000     1.0000   300.0160     0.000
     25     2.5000     0.3500    -0.0001     9.0000     27.284     40.000 194311.000     30.000    52.6071   -20.0773   -32.1481   120.0962    -0.1480    -3.0001   -44.1697     0.0000   390.0000     0.0000     1.0000   300.0000   300.0000   -31.9530    80.4385    -1.9790    -1.4485    20.0000    20.0000    10.0000    20.0000    26.0000    10.0000    16.0000    20.0000    -0.0005     0.0005   159.4164   -41.1662     3.9420    23.7000    14.7000     2.0000     1.0000   299.9440     0.000
     26     2.5001     0.3500    -0.0001     8.7500     26.663     52.000 194311.000     30.000    52.8868   -20.0773   -32.3237   120.0962    -0.1480    -3.0001   -43.9203     0.0000   390.0000     0.0000     1.0000   300.0000   300.0000   -32.0030    80.7818    -1.9790    -1.4485    20.0000    20.0000    10.0000    20.0000    26.0000    10.0000    16.0000    20.0000    -0.0005     0.0005   159.4164   -41.1662     3.9421    23.4500    14.7000     2.0000     1.0000   299.9920     0.000
     27     2.5000     0.3500    -0.0001     8.5001     26.051     59.000 194311.000     30.000    53.1710   -20.0773   -32.5021   120.0962    -0.1480    -3.0001   -43.6697     0.0000   390.0000     0.0000     1.0000   300.0000   300.0000   -32.0520    81.1224    -1.9790    -1.4485    20.0000    20.0000    10.0000    20.0000    26.0000    10.0000    16.0000    20.0000    -0.0005     0.0005   159.4164   -41.1662     3.9420    23.2001    14.7000     2.0000     1.0000   300.0150     0.000
     28     2.5000     0.3500    -0.0001     8.2499     25.236     61.000 194311.000     30.000    53.4598   -20.0773   -32.6837   120.0962    -0.1480    -3.0001   -43.4180     0.0000   390.0000     0.0000     1.0000   300.0000   300.0000   -32.0996    81.4666    -1.9790    -1.4485    20.0000    20.0000    10.0000    20.0000    26.0000    10.0000    16.0000    20.0000    -0.0005     0.0005   159.4164   -41.1662     3.9420    22.9499    14.7000     2.0000     1.0000   300.0070     0.000
     29     2.5000     0.3500    -0.0001     7.9999     24.440     57.000 194311.000     30.000    53.7534   -20.0773   -32.8683   120.0962    -0.1480    -3.0001   -43.1651     0.0000   390.0000     0.0000     1.0000   300.0000   300.0000   -32.1454    81.8159    -1.9790    -1.4485    20.0000    20.0000    10.0000    20.0000    26.0000    10.0000    16.0000    20.0000    -0.0005     0.0005   159.4164   -41.1662     3.9420    22.6999    14.7000     2.0000     1.0000   300.0090     0.000
     30     2.5001     0.3500    -0.0001     7.7501     23.927     52.000 194311.000     30.000    54.0519   -20.0773   -33.0559   120.0962    -0.1480    -3.0001   -42.9109     0.0000   390.0000     0.0000     1.0000   300.0000   300.0000   -32.1904    82.1712    -1.9790    -1.4485    20.0000    20.0000    10.0000    20.0000    26.0000    10.0000    16.0000    20.0000    -0.0005     0.0005   159.4164   -41.1662     3.9421    22.4501    14.7000     2.0000     1.0000   300.0010     0.000
     31     2.5000     0.3500    -0.0001     7.4998     23.772     64.000 194311.000     30.000    54.3554   -20.0773   -33.2471   120.0962    -0.1480    -3.0001   -42.6556     0.0000   390.0000     0.0000     1.0000   300.0000   300.0000   -32.2336    82.5253    -1.9790    -1.4485    20.0000    20.0000    10.0000    20.0000    26.0000    10.0000    16.0000    20.0000    -0.0005     0.0005   159.4164   -41.1662     3.9420    22.1998    14.7000     2.0000     1.0000   300.0030     0.000
     32     2.5000     0.3500    -0.0001     7.2504     23.748     66.000 194311.000     30.000    54.6640   -20.0773   -33.4410   120.0962    -0.1480    -3.0001   -42.3989     0.0000   390.0000     0.0000     1.0000   300.0000   300.0000   -32.2746    82.8830    -1.9790    -1.4485    20.0000    20.0000    10.0000    20.0000    26.0000    10.0000    16.0000    20.0000    -0.0005     0.0005   159.4164   -41.1662     3.9420    21.9504    14.7000     2.0000     1.0000   299.9960     0.000
     33     2.5000     0.3500    -0.0001     6.9997     23.772     73.000 194311.000     30.000    54.9780   -20.0773   -33.6393   120.0962    -0.1480    -3.0001   -42.1410     0.0000   390.0000     0.0000     1.0000   300.0000   300.0000   -32.3148    83.2458    -1.9790    -1.4485    20.0000    20.0000    10.0000    20.0000    26.0000    10.0000    16.0000    20.0000    -0.0005     0.0005   159.4164   -41.1662     3.9419    21.6997    14.7000     2.0000     1.0000   299.9970     0.000
     34     2.5001     0.3500    -0.0001     6.7501     23.954     66.000 194311.000     30.000    55.2975   -20.0773   -33.8403   120.0962    -0.1480    -3.0001   -41.8818     0.0000   390.0000     0.0000     1.0000   300.0000   300.0000   -32.3531    83.6153    -1.9790    -1.4485    20.0000    20.0000    10.0000    20.0000    26.0000    10.0000    16.0000    20.0000    -0.0005     0.0005   159.4164   -41.1662     3.9421    21.4501    14.7000     2.0000     1.0000   300.0320     0.000
     35     2.5001     0.3500    -0.0001     6.4999     24.170     67.000 194311.000     30.000    55.6225   -20.0773   -34.0454   120.0962    -0.1480    -3.0001   -41.6214     0.0000   390.0000     0.0000     1.0000   300.0000   300.0000   -32.3895    83.9865    -1.9790    -1.4485    20.0000    20.0000    10.0000    20.0000    26.0000    10.0000    16.0000    20.0000    -0.0005     0.0005   159.4164   -41.1662     3.9421    21.1999    14.7000     2.0000     1.0000   300.0220     0.000
     36     2.5001     0.3500    -0.0001     6.2501     24.394     62.000 194311.000     30.000    55.9535   -20.0773   -34.2540   120.0962    -0.1480    -3.0001   -41.3595     0.0000   390.0000     0.0000     1.0000   300.0000   300.0000   -32.4243    84.3605    -1.9790    -1.4485    20.0000    20.0000    10.0000    20.0000    26.0000    10.0000    16.0000    20.0000    -0.0005     0.0005   159.4164   -41.1662     3.9421    20.9501    14.7000     2.0000     1.0000   300.0150     0.000
     37     2.5000     0.3500    -0.0001     6.0000     24.667     75.000 194311.000     30.000    56.2903   -20.0773   -34.4668   120.0962    -0.1480    -3.0001   -41.0963     0.0000   390.0000     0.0000     1.0000   300.0000   300.0000   -32.4569    84.7375    -1.9790    -1.4485    20.0000    20.0000    10.0000    20.0000    26.0000    10.0000    16.0000    20.0000    -0.0005     0.0005   159.4164   -41.1662     3.9420    20.7000    14.7000     2.0000     1.0000   299.9940     0.000
