# scan = 138
# date = 9/7/2024
# time = 11:57:37 AM
# proposal = 32905
# experiment = Effects of electric field on phonon dispersion and lifetimes of poled PMN-30PT
# experiment_number = 812
# command = scan h 2.5 k 0.45 l 0 e 15 0.5 0.25 preset mcu 30
# builtin_command = scan h 2.5 k 0.45 l 0 e 15 0.5 0.25 preset mcu 30
# users = George Yumnam, Michael Manley, Puspa Upreti, Raphael Hermann, SHAOFEI WANG
# local_contact = Songxue Chi
# scan_title = (2.5,0.45,0) X to M transverse mode scan at E 400 V
# monochromator = PG002
# analyzer = Pg002
# sense = -+-
# collimation = 48-40-40-120
# samplename = PMN-30PT
# sampletype = crystal
# samplemosaic = 30.000000
# latticeconstants = 4.023634,4.023634,4.023634,90.000000,90.000000,90.000000
# ubmatrix = -0.008055,-0.248252,-0.008588,-0.248328,0.007840,0.006285,-0.006007,0.008785,-0.248304
# mode = 0
# plane_normal = 0.034555,-0.025290,0.999083
# ubconf = UB04Sep2024_115522AM.ini
# preset_type = normal 
# preset_channel = mcu
# preset_value = 30.000000
# def_x = e
# def_y = detector
# col_headers = 
#   Pt.          h          k          l          e       time   detector    monitor        mcu focal_length         m1         m2   mcrystal       marc     mtrans     mfocus       ampl         dc       freq     output       temp     temp_2         s1         s2        sgl        sgu        bbb        bbl        bbr        bbt        bab        bal        bar        bat        stl        stu         a1         a2          q         ei         ef   ampl_out output_state        vti     sample
      1     2.4999     0.4500    -0.0001    15.0019     27.476     32.000 194311.000     30.000    46.9938   -20.0773   -28.6389   120.0962    -0.1480    -3.0001   -49.8518     0.0000   400.0000     0.0000     1.0000   300.0000   300.0000   -28.0401    73.5981    -1.9790    -1.4485    20.0000    20.0000    10.0000    20.0000    26.0000    10.0000    16.0000    20.0000    -0.0005     0.0005   159.4164   -41.1662     3.9665    29.7019    14.7000     2.0000     1.0000   300.0470     0.000
      2     2.5000     0.4500    -0.0001    14.7496     27.191     37.000 194311.000     30.000    47.1929   -20.0773   -28.7640   120.0962    -0.1480    -3.0001   -49.6254     0.0000   400.0000     0.0000     1.0000   300.0000   300.0000   -28.1107    73.8909    -1.9790    -1.4485    20.0000    20.0000    10.0000    20.0000    26.0000    10.0000    16.0000    20.0000    -0.0005     0.0005   159.4164   -41.1662     3.9666    29.4496    14.7000     2.0000     1.0000   300.0190     0.000
      3     2.5001     0.4500    -0.0001    14.4999     26.726     23.000 194311.000     30.000    47.3944   -20.0773   -28.8893   120.0962    -0.1480    -3.0001   -49.3982     0.0000   400.0000     0.0000     1.0000   300.0000   300.0000   -28.1809    74.1822    -1.9790    -1.4485    20.0000    20.0000    10.0000    20.0000    26.0000    10.0000    16.0000    20.0000    -0.0005     0.0005   159.4164   -41.1662     3.9668    29.1999    14.7000     2.0000     1.0000   299.9750     0.000
      4     2.5000     0.4500    -0.0001    14.2507     26.338     25.000 194311.000     30.000    47.5986   -20.0773   -29.0161   120.0962    -0.1480    -3.0001   -49.1702     0.0000   400.0000     0.0000     1.0000   300.0000   300.0000   -28.2499    74.4698    -1.9790    -1.4485    20.0000    20.0000    10.0000    20.0000    26.0000    10.0000    16.0000    20.0000    -0.0005     0.0005   159.4164   -41.1662     3.9667    28.9508    14.7000     2.0000     1.0000   300.0020     0.000
      5     2.5001     0.4500    -0.0001    13.9994     25.958     38.000 194311.000     30.000    47.8055   -20.0773   -29.1457   120.0962    -0.1480    -3.0001   -48.9414     0.0000   400.0000     0.0000     1.0000   300.0000   300.0000   -28.3185    74.7659    -1.9790    -1.4485    20.0000    20.0000    10.0000    20.0000    26.0000    10.0000    16.0000    20.0000    -0.0005     0.0005   159.4164   -41.1662     3.9668    28.6994    14.7000     2.0000     1.0000   300.0140     0.000
      6     2.5000     0.4500    -0.0001    13.7503     25.760     23.000 194311.000     30.000    48.0151   -20.0773   -29.2758   120.0962    -0.1480    -3.0001   -48.7117     0.0000   400.0000     0.0000     1.0000   300.0000   300.0000   -28.3856    75.0564    -1.9790    -1.4485    20.0000    20.0000    10.0000    20.0000    26.0000    10.0000    16.0000    20.0000    -0.0005     0.0005   159.4164   -41.1662     3.9666    28.4503    14.7000     2.0000     1.0000   300.0010     0.000
      7     2.5000     0.4500    -0.0001    13.5003     25.601     31.000 194311.000     30.000    48.2274   -20.0773   -29.4082   120.0962    -0.1480    -3.0001   -48.4811     0.0000   400.0000     0.0000     1.0000   300.0000   300.0000   -28.4528    75.3546    -1.9790    -1.4485    20.0000    20.0000    10.0000    20.0000    26.0000    10.0000    16.0000    20.0000    -0.0005     0.0005   159.4164   -41.1662     3.9667    28.2003    14.7000     2.0000     1.0000   299.9920     0.000
      8     2.4999     0.4500    -0.0001    13.2496     25.440     39.000 194311.000     30.000    48.4427   -20.0773   -29.5428   120.0962    -0.1480    -3.0001   -48.2497     0.0000   400.0000     0.0000     1.0000   300.0000   300.0000   -28.5189    75.6503    -1.9790    -1.4485    20.0000    20.0000    10.0000    20.0000    26.0000    10.0000    16.0000    20.0000    -0.0005     0.0005   159.4164   -41.1662     3.9666    27.9496    14.7000     2.0000     1.0000   299.9990     0.000
      9     2.5000     0.4500    -0.0001    13.0000     25.775     43.000 194311.000     30.000    48.6608   -20.0773   -29.6786   120.0962    -0.1480    -3.0001   -48.0174     0.0000   400.0000     0.0000     1.0000   300.0000   300.0000   -28.5836    75.9525    -1.9790    -1.4485    20.0000    20.0000    10.0000    20.0000    26.0000    10.0000    16.0000    20.0000    -0.0005     0.0005   159.4164   -41.1662     3.9667    27.7000    14.7000     2.0000     1.0000   300.0140     0.000
     10     2.4999     0.4500    -0.0001    12.7500     25.888     33.000 194311.000     30.000    48.8819   -20.0773   -29.8166   120.0962    -0.1480    -3.0001   -47.7842     0.0000   400.0000     0.0000     1.0000   300.0000   300.0000   -28.6478    76.2523    -1.9790    -1.4485    20.0000    20.0000    10.0000    20.0000    26.0000    10.0000    16.0000    20.0000    -0.0005     0.0005   159.4164   -41.1662     3.9666    27.4500    14.7000     2.0000     1.0000   299.9530     0.000
     11     2.5001     0.4500    -0.0001    12.4999     26.308     44.000 194311.000     30.000    49.1060   -20.0773   -29.9566   120.0962    -0.1480    -3.0001   -47.5501     0.0000   400.0000     0.0000     1.0000   300.0000   300.0000   -28.7116    76.5603    -1.9790    -1.4485    20.0000    20.0000    10.0000    20.0000    26.0000    10.0000    16.0000    20.0000    -0.0005     0.0005   159.4164   -41.1662     3.9667    27.1999    14.7000     2.0000     1.0000   300.0100     0.000
     12     2.5000     0.4500    -0.0001    12.2504     26.820     61.000 194311.000     30.000    49.3332   -20.0773   -30.0982   120.0962    -0.1480    -3.0001   -47.3151     0.0000   400.0000     0.0000     1.0000   300.0000   300.0000   -28.7741    76.8633    -1.9790    -1.4485    20.0000    20.0000    10.0000    20.0000    26.0000    10.0000    16.0000    20.0000    -0.0005     0.0005   159.4164   -41.1662     3.9666    26.9504    14.7000     2.0000     1.0000   300.0150     0.000
     13     2.5001     0.4500    -0.0001    11.9996     26.920     47.000 194311.000     30.000    49.5636   -20.0773   -30.2426   120.0962    -0.1480    -3.0001   -47.0791     0.0000   400.0000     0.0000     1.0000   300.0000   300.0000   -28.8351    77.1769    -1.9790    -1.4485    20.0000    20.0000    10.0000    20.0000    26.0000    10.0000    16.0000    20.0000    -0.0005     0.0005   159.4164   -41.1662     3.9668    26.6996    14.7000     2.0000     1.0000   300.0060     0.000
     14     2.5000     0.4500    -0.0001    11.7500     27.093     44.000 194311.000     30.000    49.7973   -20.0773   -30.3884   120.0962    -0.1480    -3.0001   -46.8422     0.0000   400.0000     0.0000     1.0000   300.0000   300.0000   -28.8961    77.4834    -1.9790    -1.4485    20.0000    20.0000    10.0000    20.0000    26.0000    10.0000    16.0000    20.0000    -0.0005     0.0005   159.4164   -41.1662     3.9666    26.4500    14.7000     2.0000     1.0000   300.0060     0.000
     15     2.5001     0.4500    -0.0001    11.5001     26.854     47.000 194311.000     30.000    50.0343   -20.0773   -30.5364   120.0962    -0.1480    -3.0001   -46.6044     0.0000   400.0000     0.0000     1.0000   300.0000   300.0000   -28.9555    77.8007    -1.9790    -1.4485    20.0000    20.0000    10.0000    20.0000    26.0000    10.0000    16.0000    20.0000    -0.0005     0.0005   159.4164   -41.1662     3.9668    26.2001    14.7000     2.0000     1.0000   300.0060     0.000
     16     2.5000     0.4500    -0.0001    11.2502     26.694     56.000 194311.000     30.000    50.2748   -20.0773   -30.6868   120.0962    -0.1480    -3.0001   -46.3655     0.0000   400.0000     0.0000     1.0000   300.0000   300.0000   -29.0144    78.1137    -1.9790    -1.4485    20.0000    20.0000    10.0000    20.0000    26.0000    10.0000    16.0000    20.0000    -0.0005     0.0005   159.4164   -41.1662     3.9667    25.9502    14.7000     2.0000     1.0000   300.0090     0.000
     17     2.5000     0.4500    -0.0001    11.0000     26.443     48.000 194311.000     30.000    50.5187   -20.0773   -30.8395   120.0962    -0.1480    -3.0001   -46.1257     0.0000   400.0000     0.0000     1.0000   300.0000   300.0000   -29.0716    78.4302    -1.9790    -1.4485    20.0000    20.0000    10.0000    20.0000    26.0000    10.0000    16.0000    20.0000    -0.0005     0.0005   159.4164   -41.1662     3.9666    25.7000    14.7000     2.0000     1.0000   299.9620     0.000
     18     2.5000     0.4500    -0.0001    10.7500     26.429     59.000 194311.000     30.000    50.7662   -20.0773   -30.9943   120.0962    -0.1480    -3.0001   -45.8849     0.0000   400.0000     0.0000     1.0000   300.0000   300.0000   -29.1283    78.7517    -1.9790    -1.4485    20.0000    20.0000    10.0000    20.0000    26.0000    10.0000    16.0000    20.0000    -0.0005     0.0005   159.4164   -41.1662     3.9667    25.4501    14.7000     2.0000     1.0000   300.0070     0.000
     19     2.5000     0.4500    -0.0001    10.5002     26.356     64.000 194311.000     30.000    51.0174   -20.0773   -31.1515   120.0962    -0.1480    -3.0001   -45.6430     0.0000   400.0000     0.0000     1.0000   300.0000   300.0000   -29.1840    79.0725    -1.9790    -1.4485    20.0000    20.0000    10.0000    20.0000    26.0000    10.0000    16.0000    20.0000    -0.0005     0.0005   159.4164   -41.1662     3.9666    25.2002    14.7000     2.0000     1.0000   300.0160     0.000
     20     2.5001     0.4500    -0.0001    10.2503     26.248     72.000 194311.000     30.000    51.2724   -20.0773   -31.3110   120.0962    -0.1480    -3.0001   -45.4002     0.0000   400.0000     0.0000     1.0000   300.0000   300.0000   -29.2376    79.4019    -1.9790    -1.4485    20.0000    20.0000    10.0000    20.0000    26.0000    10.0000    16.0000    20.0000    -0.0005     0.0005   159.4164   -41.1662     3.9668    24.9504    14.7000     2.0000     1.0000   299.9980     0.000
     21     2.5000     0.4500    -0.0001     9.9998     26.481     79.000 194311.000     30.000    51.5312   -20.0773   -31.4735   120.0962    -0.1480    -3.0001   -45.1562     0.0000   400.0000     0.0000     1.0000   300.0000   300.0000   -29.2913    79.7281    -1.9790    -1.4485    20.0000    20.0000    10.0000    20.0000    26.0000    10.0000    16.0000    20.0000    -0.0005     0.0005   159.4164   -41.1662     3.9667    24.6998    14.7000     2.0000     1.0000   300.0130     0.000
     22     2.4999     0.4500    -0.0001     9.7498     26.984     86.000 194311.000     30.000    51.7940   -20.0773   -31.6382   120.0962    -0.1480    -3.0001   -44.9112     0.0000   400.0000     0.0000     1.0000   300.0000   300.0000   -29.3433    80.0562    -1.9790    -1.4485    20.0000    20.0000    10.0000    20.0000    26.0000    10.0000    16.0000    20.0000    -0.0005     0.0005   159.4164   -41.1662     3.9666    24.4498    14.7000     2.0000     1.0000   299.9410     0.000
     23     2.5001     0.4499    -0.0001     9.4998     27.241     74.000 194311.000     30.000    52.0609   -20.0773   -31.8055   120.0962    -0.1480    -3.0001   -44.6652     0.0000   400.0000     0.0000     1.0000   300.0000   300.0000   -29.3941    80.3958    -1.9790    -1.4485    20.0000    20.0000    10.0000    20.0000    26.0000    10.0000    16.0000    20.0000    -0.0005     0.0005   159.4164   -41.1662     3.9668    24.1998    14.7000     2.0000     1.0000   300.0130     0.000
     24     2.5000     0.4500    -0.0001     9.2503     27.438     67.000 194311.000     30.000    52.3319   -20.0773   -31.9752   120.0962    -0.1480    -3.0001   -44.4180     0.0000   400.0000     0.0000     1.0000   300.0000   300.0000   -29.4430    80.7287    -1.9790    -1.4485    20.0000    20.0000    10.0000    20.0000    26.0000    10.0000    16.0000    20.0000    -0.0005     0.0005   159.4164   -41.1662     3.9667    23.9503    14.7000     2.0000     1.0000   300.0170     0.000
     25     2.4999     0.4500    -0.0001     8.9999     27.338     57.000 194311.000     30.000    52.6071   -20.0773   -32.1482   120.0962    -0.1480    -3.0001   -44.1697     0.0000   400.0000     0.0000     1.0000   300.0000   300.0000   -29.4914    81.0659    -1.9790    -1.4485    20.0000    20.0000    10.0000    20.0000    26.0000    10.0000    16.0000    20.0000    -0.0005     0.0005   159.4164   -41.1662     3.9666    23.6999    14.7000     2.0000     1.0000   299.9930     0.000
     26     2.5000     0.4500    -0.0001     8.7501     26.722     59.000 194311.000     30.000    52.8868   -20.0773   -32.3237   120.0962    -0.1480    -3.0001   -43.9203     0.0000   400.0000     0.0000     1.0000   300.0000   300.0000   -29.5386    81.4103    -1.9790    -1.4485    20.0000    20.0000    10.0000    20.0000    26.0000    10.0000    16.0000    20.0000    -0.0005     0.0005   159.4164   -41.1662     3.9667    23.4501    14.7000     2.0000     1.0000   300.0060     0.000
     27     2.5000     0.4500    -0.0001     8.5000     26.050     76.000 194311.000     30.000    53.1710   -20.0773   -32.5022   120.0962    -0.1480    -3.0001   -43.6697     0.0000   400.0000     0.0000     1.0000   300.0000   300.0000   -29.5836    81.7560    -1.9790    -1.4485    20.0000    20.0000    10.0000    20.0000    26.0000    10.0000    16.0000    20.0000    -0.0005     0.0005   159.4164   -41.1662     3.9667    23.2000    14.7000     2.0000     1.0000   300.0050     0.000
     28     2.5000     0.4500    -0.0001     8.2499     25.154     70.000 194311.000     30.000    53.4598   -20.0773   -32.6837   120.0962    -0.1480    -3.0001   -43.4180     0.0000   400.0000     0.0000     1.0000   300.0000   300.0000   -29.6275    82.1046    -1.9790    -1.4485    20.0000    20.0000    10.0000    20.0000    26.0000    10.0000    16.0000    20.0000    -0.0005     0.0005   159.4164   -41.1662     3.9667    22.9499    14.7000     2.0000     1.0000   299.9990     0.000
     29     2.4999     0.4500    -0.0001     8.0000     24.411     56.000 194311.000     30.000    53.7534   -20.0773   -32.8682   120.0962    -0.1480    -3.0001   -43.1651     0.0000   400.0000     0.0000     1.0000   300.0000   300.0000   -29.6704    82.4544    -1.9790    -1.4485    20.0000    20.0000    10.0000    20.0000    26.0000    10.0000    16.0000    20.0000    -0.0005     0.0005   159.4164   -41.1662     3.9666    22.7000    14.7000     2.0000     1.0000   299.9760     0.000
     30     2.5001     0.4500    -0.0001     7.7501     23.989     69.000 194311.000     30.000    54.0519   -20.0773   -33.0559   120.0962    -0.1480    -3.0001   -42.9109     0.0000   400.0000     0.0000     1.0000   300.0000   300.0000   -29.7111    82.8135    -1.9790    -1.4485    20.0000    20.0000    10.0000    20.0000    26.0000    10.0000    16.0000    20.0000    -0.0005     0.0005   159.4164   -41.1662     3.9667    22.4501    14.7000     2.0000     1.0000   300.0100     0.000
     31     2.5001     0.4500    -0.0001     7.4998     23.976     63.000 194311.000     30.000    54.3554   -20.0773   -33.2471   120.0962    -0.1480    -3.0001   -42.6556     0.0000   400.0000     0.0000     1.0000   300.0000   300.0000   -29.7509    83.1737    -1.9790    -1.4485    20.0000    20.0000    10.0000    20.0000    26.0000    10.0000    16.0000    20.0000    -0.0005     0.0005   159.4164   -41.1662     3.9668    22.1998    14.7000     2.0000     1.0000   300.0120     0.000
     32     2.5000     0.4500    -0.0001     7.2503     23.856     55.000 194311.000     30.000    54.6640   -20.0773   -33.4410   120.0962    -0.1480    -3.0001   -42.3989     0.0000   400.0000     0.0000     1.0000   300.0000   300.0000   -29.7886    83.5338    -1.9790    -1.4485    20.0000    20.0000    10.0000    20.0000    26.0000    10.0000    16.0000    20.0000    -0.0005     0.0005   159.4164   -41.1662     3.9667    21.9503    14.7000     2.0000     1.0000   300.0000     0.000
     33     2.5000     0.4500    -0.0001     6.9997     23.885     69.000 194311.000     30.000    54.9780   -20.0773   -33.6393   120.0962    -0.1480    -3.0001   -42.1410     0.0000   400.0000     0.0000     1.0000   300.0000   300.0000   -29.8246    83.8993    -1.9790    -1.4485    20.0000    20.0000    10.0000    20.0000    26.0000    10.0000    16.0000    20.0000    -0.0005     0.0005   159.4164   -41.1662     3.9667    21.6997    14.7000     2.0000     1.0000   300.0220     0.000
     34     2.5000     0.4500    -0.0001     6.7502     23.980     63.000 194311.000     30.000    55.2975   -20.0773   -33.8402   120.0962    -0.1480    -3.0001   -41.8818     0.0000   400.0000     0.0000     1.0000   300.0000   300.0000   -29.8591    84.2678    -1.9790    -1.4485    20.0000    20.0000    10.0000    20.0000    26.0000    10.0000    16.0000    20.0000    -0.0005     0.0005   159.4164   -41.1662     3.9666    21.4502    14.7000     2.0000     1.0000   300.0020     0.000
     35     2.5000     0.4500    -0.0001     6.4999     24.114     75.000 194311.000     30.000    55.6225   -20.0773   -34.0455   120.0962    -0.1480    -3.0001   -41.6214     0.0000   400.0000     0.0000     1.0000   300.0000   300.0000   -29.8914    84.6420    -1.9790    -1.4485    20.0000    20.0000    10.0000    20.0000    26.0000    10.0000    16.0000    20.0000    -0.0005     0.0005   159.4164   -41.1662     3.9666    21.1999    14.7000     2.0000     1.0000   300.0250     0.000
     36     2.5000     0.4500    -0.0001     6.2501     24.372     77.000 194311.000     30.000    55.9535   -20.0773   -34.2541   120.0962    -0.1480    -3.0001   -41.3595     0.0000   400.0000     0.0000     1.0000   300.0000   300.0000   -29.9225    85.0212    -1.9790    -1.4485    20.0000    20.0000    10.0000    20.0000    26.0000    10.0000    16.0000    20.0000    -0.0005     0.0005   159.4164   -41.1662     3.9667    20.9501    14.7000     2.0000     1.0000   299.9950     0.000
     37     2.5000     0.4500    -0.0001     6.0000     24.789     81.000 194311.000     30.000    56.2903   -20.0773   -34.4667   120.0962    -0.1480    -3.0001   -41.0963     0.0000   400.0000     0.0000     1.0000   300.0000   300.0000   -29.9511    85.4044    -1.9790    -1.4485    20.0000    20.0000    10.0000    20.0000    26.0000    10.0000    16.0000    20.0000    -0.0005     0.0005   159.4164   -41.1662     3.9667    20.7001    14.7000     2.0000     1.0000   300.0110     0.000
