# scan = 4
# date = 1/1/1111
# time = 1:25:08 PM
# proposal = 99999
# experiment = Longitudinal polarization analysis 
# experiment_number = 1111
# command = scan h 1.85 2.15 0.01 k -1.85 -2.15 -0.01 l 0 e 0 preset countfile Px_SF_NSF_20s
# builtin_command = scan h 1.85 2.15 0.01 k -1.85 -2.15 -0.01 l 0 e 0 preset countfile px_sf_nsf_20s
# users = Avishek Maity
# local_contact = Avishek Maity
# scan_title = FR (2-20) PxSF/NSF
# monochromator = Heusler
# analyzer = Heusler
# sense = +-+
# collimation = 48-80-999-999
# samplename = crystal
# sampletype = crystal
# samplemosaic = 30.000000
# latticeconstants = 1.160800,1.254400,1.042000,90.000000,90.000000,90.000000
# ubmatrix = -0.101097,0.095013,-0.000735,-0.058064,-0.055475,0.020693,0.076876,0.083049,0.014663
# mode = 0
# plane_normal = -0.043297,-0.011828,0.998992
# ubconf = UB01Jan1111_11111PM.ini
# preset_type = countfile
# countfile = guide 16 parq
# countfile = drive hguide 1.8 vguide 1.9
# countfile = count preset time 20
# countfile = drive hguide 0 vguide 0
# countfile = count preset time 20
# def_x = h
# def_y = detector_1
# col_headers = 
#   Pt.          h          k          l          e     time_1 detector_1  monitor_1      mcu_1     time_2 detector_2  monitor_2      mcu_2         m1         m2       marc     mtrans     mfocus     fguide     hguide     vguide    tbguide     aguide     bguide     cguide fguide_mode hguide_mode vguide_mode tbguide_mode aguide_mode bguide_mode cguide_mode fguide_out hguide_out vguide_out tbguide_out aguide_out bguide_out cguide_out fguide_volt hguide_volt vguide_volt tbguide_volt aguide_volt bguide_volt cguide_volt         s1         s2        sgl        sgu slit_pre_bt slit_pre_lf slit_pre_rt slit_pre_tp        stl        stu         a1         a2          q         ei         ef fguide_amps hguide_amps vguide_amps tbguide_amps aguide_amps bguide_amps cguide_amps    coldtip     sample       temp
      1     1.8504    -1.8499     0.0014    -0.0045     20.000    169.000  19024.000     20.564     20.000    137.000  19103.000     20.649   -49.1584    41.9678     0.5070     9.0000   279.9974     4.5000     0.0000     0.0000     0.0000     2.4784     2.0567   -19.6923     1.0000     1.0000     1.0000     1.0000     1.0000     1.0000     1.0000     1.0000     1.0000     1.0000     1.0000     1.0000     1.0000     1.0000    20.0000    20.0000    20.0000    20.0000    20.0000    20.0000    20.0000    65.2661   -53.0776     2.4820    -0.6784    20.0000    20.0000    20.0000    20.0000    -0.0005     0.0000    20.9838    41.9605     2.2811    13.5000    13.5045     4.5112     0.0010     0.0046     0.0067     2.3714     2.0533   -19.7343     9.9562    10.0201    10.000
      2     1.8604    -1.8599     0.0014    -0.0044     20.000    191.000  19100.000     20.646     20.000    141.000  18931.000     20.463   -49.1584    41.9675     0.5070     9.0000   279.9974     4.5000     0.0000     0.0000     0.0000     2.5227     2.0080   -19.6821     1.0000     1.0000     1.0000     1.0000     1.0000     1.0000     1.0000     1.0000     1.0000     1.0000     1.0000     1.0000     1.0000     1.0000    20.0000    20.0000    20.0000    20.0000    20.0000    20.0000    20.0000    65.1110   -53.3874     2.4820    -0.6784    20.0000    20.0000    20.0000    20.0000    -0.0005     0.0000    20.9838    41.9605     2.2934    13.5002    13.5045     4.5109     0.0010     0.0046     0.0067     2.5283     2.0061   -19.7240    10.0143    10.0144    10.000
      3     1.8704    -1.8698     0.0016    -0.0044     20.000    183.000  19261.000     20.820     20.000    127.000  19269.000     20.828   -49.1584    41.9675     0.5070     9.0000   279.9974     4.5000     0.0000     0.0000     0.0000     2.5097     2.0223   -19.6853     1.0000     1.0000     1.0000     1.0000     1.0000     1.0000     1.0000     1.0000     1.0000     1.0000     1.0000     1.0000     1.0000     1.0000    20.0000    20.0000    20.0000    20.0000    20.0000    20.0000    20.0000    64.9562   -53.6947     2.4820    -0.6784    20.0000    20.0000    20.0000    20.0000    -0.0005     0.0000    20.9838    41.9605     2.3057    13.5002    13.5045     4.5112     0.0010     0.0046     0.0067     2.5150     2.0229   -19.7279     9.9850    10.0190    10.000
      4     1.8805    -1.8801     0.0011    -0.0044     20.000    176.000  19294.000     20.855     20.000    145.000  19092.000     20.637   -49.1584    41.9675     0.5070     9.0000   279.9974     4.5000     0.0000     0.0000     0.0000     2.4968     2.0365   -19.6883     1.0000     1.0000     1.0000     1.0000     1.0000     1.0000     1.0000     1.0000     1.0000     1.0000     1.0000     1.0000     1.0000     1.0000    20.0000    20.0000    20.0000    20.0000    20.0000    20.0000    20.0000    64.8008   -54.0111     2.4820    -0.6784    20.0000    20.0000    20.0000    20.0000    -0.0005     0.0000    20.9838    41.9605     2.3182    13.5002    13.5045     4.5109     0.0010     0.0046     0.0067     2.4958     2.0355   -19.7305    10.0030    10.0173    10.000
      5     1.8903    -1.8898     0.0016    -0.0044     20.000    188.000  19066.000     20.609     20.000    160.000  19186.000     20.739   -49.1584    41.9675     0.5070     9.0000   279.9974     4.5000     0.0000     0.0000     0.0000     2.4835     2.0511   -19.6912     1.0000     1.0000     1.0000     1.0000     1.0000     1.0000     1.0000     1.0000     1.0000     1.0000     1.0000     1.0000     1.0000     1.0000    20.0000    20.0000    20.0000    20.0000    20.0000    20.0000    20.0000    64.6454   -54.3152     2.4820    -0.6784    20.0000    20.0000    20.0000    20.0000    -0.0005     0.0000    20.9838    41.9605     2.3303    13.5002    13.5045     4.5109     0.0010     0.0046     0.0063     2.4824     2.0503   -19.7337     9.9554    10.0176    10.000
      6     1.9004    -1.9000     0.0012    -0.0044     20.000    177.000  19129.000     20.677     20.000    136.000  19159.000     20.709   -49.1584    41.9675     0.5070     9.0000   279.9974     4.5000     0.0000     0.0000     0.0000     2.4707     2.0651   -19.6939     1.0000     1.0000     1.0000     1.0000     1.0000     1.0000     1.0000     1.0000     1.0000     1.0000     1.0000     1.0000     1.0000     1.0000    20.0000    20.0000    20.0000    20.0000    20.0000    20.0000    20.0000    64.4898   -54.6315     2.4820    -0.6784    20.0000    20.0000    20.0000    20.0000    -0.0005     0.0000    20.9838    41.9605     2.3428    13.5002    13.5045     4.5112     0.0010     0.0042     0.0067     2.4694     2.0636   -19.7363    10.0239    10.0200    10.000
      7     1.9104    -1.9099     0.0014    -0.0044     20.000    185.000  19099.000     20.645     20.000    139.000  19041.000     20.582   -49.1584    41.9675     0.5070     9.0000   279.9974     4.5000     0.0000     0.0000     0.0000     2.4574     2.0796   -19.6965     1.0000     1.0000     1.0000     1.0000     1.0000     1.0000     1.0000     1.0000     1.0000     1.0000     1.0000     1.0000     1.0000     1.0000    20.0000    20.0000    20.0000    20.0000    20.0000    20.0000    20.0000    64.3341   -54.9414     2.4820    -0.6784    20.0000    20.0000    20.0000    20.0000    -0.0005     0.0000    20.9838    41.9605     2.3551    13.5002    13.5045     4.5109     0.0010     0.0042     0.0067     2.4561     2.0790   -19.7389     9.9507    10.0171    10.000
      8     1.9204    -1.9199     0.0014    -0.0044     20.000    167.000  19123.000     20.671     20.000    162.000  19210.000     20.765   -49.1584    41.9675     0.5070     9.0000   279.9974     4.5000     0.0000     0.0000     0.0000     2.4443     2.0938   -19.6990     1.0000     1.0000     1.0000     1.0000     1.0000     1.0000     1.0000     1.0000     1.0000     1.0000     1.0000     1.0000     1.0000     1.0000    20.0000    20.0000    20.0000    20.0000    20.0000    20.0000    20.0000    64.1780   -55.2534     2.4820    -0.6784    20.0000    20.0000    20.0000    20.0000    -0.0005     0.0000    20.9838    41.9605     2.3674    13.5002    13.5045     4.5109     0.0010     0.0046     0.0067     2.3389     2.0924   -19.7414    10.0187    10.0172    10.000
      9     1.9304    -1.9299     0.0015    -0.0044     20.000    169.000  18983.000     20.519     20.000    119.000  19123.000     20.671   -49.1584    41.9675     0.5070     9.0000   279.9974     4.5000     0.0000     0.0000     0.0000     2.4311     2.1081   -19.7013     1.0000     1.0000     1.0000     1.0000     1.0000     1.0000     1.0000     1.0000     1.0000     1.0000     1.0000     1.0000     1.0000     1.0000    20.0000    20.0000    20.0000    20.0000    20.0000    20.0000    20.0000    64.0214   -55.5652     2.4820    -0.6784    20.0000    20.0000    20.0000    20.0000    -0.0005     0.0000    20.9838    41.9605     2.3797    13.5002    13.5045     4.5109     0.0013     0.0046     0.0063     2.4300     2.1054   -19.7434    10.0160    10.0152    10.000
     10     1.9404    -1.9400     0.0013    -0.0044     20.000    178.000  19089.000     20.634     20.000    147.000  19373.000     20.941   -49.1584    41.9675     0.5070     9.0000   279.9974     4.5000     0.0000     0.0000     0.0000     2.4179     2.1224   -19.7034     1.0000     1.0000     1.0000     1.0000     1.0000     1.0000     1.0000     1.0000     1.0000     1.0000     1.0000     1.0000     1.0000     1.0000    20.0000    20.0000    20.0000    20.0000    20.0000    20.0000    20.0000    63.8651   -55.8796     2.4820    -0.6784    20.0000    20.0000    20.0000    20.0000    -0.0005     0.0000    20.9838    41.9605     2.3921    13.5002    13.5045     4.5109     0.0010     0.0046     0.0067     2.3139     2.1204   -19.7453     9.9467    10.0164    10.000
     11     1.9504    -1.9501     0.0012    -0.0044     20.000    172.000  19179.000     20.731     20.000    154.000  19098.000     20.644   -49.1584    41.9675     0.5070     9.0000   279.9974     4.5000     0.0000     0.0000     0.0000     2.4046     2.1368   -19.7055     1.0000     1.0000     1.0000     1.0000     1.0000     1.0000     1.0000     1.0000     1.0000     1.0000     1.0000     1.0000     1.0000     1.0000    20.0000    20.0000    20.0000    20.0000    20.0000    20.0000    20.0000    63.7084   -56.1949     2.4820    -0.6784    20.0000    20.0000    20.0000    20.0000    -0.0005     0.0000    20.9838    41.9605     2.4045    13.5002    13.5045     4.5112     0.0010     0.0046     0.0067     2.4040     2.1355   -19.7479    10.0264    10.0199    10.000
     12     1.9604    -1.9598     0.0017    -0.0044     20.000    186.000  19213.000     20.768     20.000    177.000  19302.000     20.864   -49.1584    41.9675     0.5070     9.0000   279.9974     4.5000     0.0000     0.0000     0.0000     2.3912     2.1512   -19.7073     1.0000     1.0000     1.0000     1.0000     1.0000     1.0000     1.0000     1.0000     1.0000     1.0000     1.0000     1.0000     1.0000     1.0000    20.0000    20.0000    20.0000    20.0000    20.0000    20.0000    20.0000    63.5511   -56.5032     2.4820    -0.6784    20.0000    20.0000    20.0000    20.0000    -0.0005     0.0000    20.9838    41.9605     2.4166    13.5002    13.5045     4.5109     0.0010     0.0046     0.0067     2.3906     2.1516   -19.7498     9.9866    10.0171    10.000
     13     1.9704    -1.9700     0.0012    -0.0044     20.000    171.000  19238.000     20.795     20.000    240.000  19073.000     20.616   -49.1584    41.9675     0.5070     9.0000   279.9974     4.5000     0.0000     0.0000     0.0000     2.3781     2.1653   -19.7090     1.0000     1.0000     1.0000     1.0000     1.0000     1.0000     1.0000     1.0000     1.0000     1.0000     1.0000     1.0000     1.0000     1.0000    20.0000    20.0000    20.0000    20.0000    20.0000    20.0000    20.0000    63.3945   -56.8225     2.4820    -0.6784    20.0000    20.0000    20.0000    20.0000    -0.0005     0.0000    20.9838    41.9605     2.4291    13.5002    13.5045     4.5109     0.0010     0.0046     0.0067     2.3773     2.1643   -19.7518     9.9968    10.0169    10.000
     14     1.9804    -1.9798     0.0016    -0.0044     20.000    256.000  19083.000     20.627     20.000    526.000  19017.000     20.556   -49.1584    41.9675     0.5070     9.0000   279.9974     4.5000     0.0000     0.0000     0.0000     2.3645     2.1798   -19.7106     1.0000     1.0000     1.0000     1.0000     1.0000     1.0000     1.0000     1.0000     1.0000     1.0000     1.0000     1.0000     1.0000     1.0000    20.0000    20.0000    20.0000    20.0000    20.0000    20.0000    20.0000    63.2365   -57.1331     2.4820    -0.6784    20.0000    20.0000    20.0000    20.0000    -0.0005     0.0000    20.9838    41.9605     2.4413    13.5002    13.5045     4.5112     0.0010     0.0046     0.0063     2.3636     2.1797   -19.7530    10.0194    10.0169    10.000
     15     1.9904    -1.9900     0.0013    -0.0044     20.000    359.000  18949.000     20.482     20.000   1564.000  19164.000     20.715   -49.1584    41.9675     0.5070     9.0000   279.9974     4.5000     0.0000     0.0000     0.0000     2.3513     2.1940   -19.7121     1.0000     1.0000     1.0000     1.0000     1.0000     1.0000     1.0000     1.0000     1.0000     1.0000     1.0000     1.0000     1.0000     1.0000    20.0000    20.0000    20.0000    20.0000    20.0000    20.0000    20.0000    63.0791   -57.4522     2.4820    -0.6784    20.0000    20.0000    20.0000    20.0000    -0.0005     0.0000    20.9838    41.9605     2.4538    13.5002    13.5045     4.5112     0.0010     0.0042     0.0067     2.3505     2.1917   -19.7550     9.9660    10.0210    10.000
     16     2.0005    -2.0000     0.0012    -0.0044     20.000    530.000  19304.000     20.866     20.000   2461.000  19267.000     20.826   -49.1584    41.9675     0.5070     9.0000   279.9974     4.5000     0.0000     0.0000     0.0000     2.3377     2.2085   -19.7134     1.0000     1.0000     1.0000     1.0000     1.0000     1.0000     1.0000     1.0000     1.0000     1.0000     1.0000     1.0000     1.0000     1.0000    20.0000    20.0000    20.0000    20.0000    20.0000    20.0000    20.0000    62.9209   -57.7693     2.4820    -0.6784    20.0000    20.0000    20.0000    20.0000    -0.0005     0.0000    20.9838    41.9605     2.4661    13.5002    13.5045     4.5109     0.0010     0.0046     0.0063     2.2368     2.2071   -19.7556    10.0088    10.0174    10.000
     17     2.0104    -2.0100     0.0013    -0.0044     20.000    602.000  18796.000     20.317     20.000   2444.000  18986.000     20.522   -49.1584    41.9675     0.5070     9.0000   279.9974     4.5000     0.0000     0.0000     0.0000     2.3241     2.2229   -19.7145     1.0000     1.0000     1.0000     1.0000     1.0000     1.0000     1.0000     1.0000     1.0000     1.0000     1.0000     1.0000     1.0000     1.0000    20.0000    20.0000    20.0000    20.0000    20.0000    20.0000    20.0000    62.7631   -58.0833     2.4820    -0.6784    20.0000    20.0000    20.0000    20.0000    -0.0005     0.0000    20.9838    41.9605     2.4784    13.5002    13.5045     4.5109     0.0013     0.0046     0.0067     2.3231     2.2218   -19.7576     9.9871    10.0186    10.000
     18     2.0204    -2.0200     0.0012    -0.0044     20.000    372.000  19273.000     20.833     20.000   1519.000  19135.000     20.684   -49.1584    41.9675     0.5070     9.0000   279.9974     4.5000     0.0000     0.0000     0.0000     2.3107     2.2371   -19.7155     1.0000     1.0000     1.0000     1.0000     1.0000     1.0000     1.0000     1.0000     1.0000     1.0000     1.0000     1.0000     1.0000     1.0000    20.0000    20.0000    20.0000    20.0000    20.0000    20.0000    20.0000    62.6045   -58.4016     2.4820    -0.6784    20.0000    20.0000    20.0000    20.0000    -0.0005     0.0000    20.9838    41.9605     2.4908    13.5002    13.5045     4.5109     0.0010     0.0046     0.0067     2.3098     2.2351   -19.7582     9.9508    10.0165    10.000
     19     2.0303    -2.0297     0.0018    -0.0044     20.000    265.000  18884.000     20.412     20.000    759.000  19364.000     20.931   -49.1584    41.9675     0.5070     9.0000   279.9974     4.5000     0.0000     0.0000     0.0000     2.2970     2.2516   -19.7164     1.0000     1.0000     1.0000     1.0000     1.0000     1.0000     1.0000     1.0000     1.0000     1.0000     1.0000     1.0000     1.0000     1.0000    20.0000    20.0000    20.0000    20.0000    20.0000    20.0000    20.0000    62.4456   -58.7128     2.4820    -0.6784    20.0000    20.0000    20.0000    20.0000    -0.0005     0.0000    20.9838    41.9605     2.5029    13.5002    13.5045     4.5109     0.0010     0.0046     0.0067     2.2964     2.2492   -19.7595    10.0079    10.0163    10.000
     20     2.0404    -2.0399     0.0014    -0.0044     20.000    207.000  19106.000     20.652     20.000    225.000  19234.000     20.791   -49.1584    41.9675     0.5070     9.0000   279.9974     4.5000     0.0000     0.0000     0.0000     2.2837     2.2657   -19.7170     1.0000     1.0000     1.0000     1.0000     1.0000     1.0000     1.0000     1.0000     1.0000     1.0000     1.0000     1.0000     1.0000     1.0000    20.0000    20.0000    20.0000    20.0000    20.0000    20.0000    20.0000    62.2873   -59.0347     2.4820    -0.6784    20.0000    20.0000    20.0000    20.0000    -0.0005     0.0000    20.9838    41.9605     2.5153    13.5002    13.5045     4.5109     0.0010     0.0046     0.0063     2.2830     2.2649   -19.7601    10.0191    10.0168    10.000
     21     2.0504    -2.0498     0.0016    -0.0044     20.000    189.000  19184.000     20.736     20.000    135.000  18994.000     20.531   -49.1584    41.9675     0.5070     9.0000   279.9974     4.5000     0.0000     0.0000     0.0000     2.2699     2.2802   -19.7176     1.0000     1.0000     1.0000     1.0000     1.0000     1.0000     1.0000     1.0000     1.0000     1.0000     1.0000     1.0000     1.0000     1.0000    20.0000    20.0000    20.0000    20.0000    20.0000    20.0000    20.0000    62.1277   -59.3512     2.4820    -0.6784    20.0000    20.0000    20.0000    20.0000    -0.0005     0.0000    20.9838    41.9605     2.5276    13.5002    13.5045     4.5109     0.0013     0.0046     0.0067     2.1717     2.2786   -19.7601     9.9494    10.0160    10.000
     22     2.0604    -2.0599     0.0014    -0.0044     20.000    174.000  19212.000     20.767     20.000    145.000  19156.000     20.706   -49.1584    41.9675     0.5070     9.0000   279.9974     4.5000     0.0000     0.0000     0.0000     2.2563     2.2945   -19.7180     1.0000     1.0000     1.0000     1.0000     1.0000     1.0000     1.0000     1.0000     1.0000     1.0000     1.0000     1.0000     1.0000     1.0000    20.0000    20.0000    20.0000    20.0000    20.0000    20.0000    20.0000    61.9686   -59.6715     2.4820    -0.6784    20.0000    20.0000    20.0000    20.0000    -0.0005     0.0000    20.9838    41.9605     2.5400    13.5002    13.5045     4.5109     0.0010     0.0046     0.0067     2.2556     2.2940   -19.7601    10.0257    10.0209    10.000
     23     2.0705    -2.0701     0.0011    -0.0044     20.000    166.000  19183.000     20.735     20.000    114.000  19001.000     20.539   -49.1584    41.9675     0.5070     9.0000   279.9974     4.5000     0.0000     0.0000     0.0000     2.2425     2.3090   -19.7182     1.0000     1.0000     1.0000     1.0000     1.0000     1.0000     1.0000     1.0000     1.0000     1.0000     1.0000     1.0000     1.0000     1.0000    20.0000    20.0000    20.0000    20.0000    20.0000    20.0000    20.0000    61.8088   -59.9943     2.4820    -0.6784    20.0000    20.0000    20.0000    20.0000    -0.0005     0.0000    20.9838    41.9605     2.5525    13.5002    13.5045     4.5109     0.0010     0.0042     0.0067     2.2416     2.2088   -19.7608    10.0158    10.0182    10.000
