# scan = 783
# date = 2/22/2025
# time = 7:53:16 PM
# proposal = 33477
# experiment = Commissioning and enabling the 4-circle capability at VERITAS
# experiment_number = 1046
# command = scan omega -18 -21.6 0.15
# builtin_command = scan omega -18 -21.6 0.15
# users = Feng Ye, Mike McDowell, Jiasen Guo, Adam Aczel, Kaleb Burrage, Wei Tian, Bing Li, Zachary Morgan
# local_contact = Wei Tian
# scan_title = MnWO4, (0.25 -1.5 0.5) & (0.216 -1.5 0.458) OP, at T = 4.7573 K, warming up
# monochromator = PG002
# analyzer = Pg002
# sense = +-+
# collimation = 40-40-40-80
# samplename = La2Ni7, MnWO4
# sampletype = crystal
# samplemosaic = 30.000000
# latticeconstants = 4.824069,5.755582,4.999231,89.932854,88.939129,90.018476
# ubmatrix = 0.016958,0.172722,0.013747,0.204090,-0.011993,-0.036006,-0.032332,0.014503,-0.196318
# mode = 0
# plane_normal = 0.000000,0.000000,0.000000
# ubconf = UBmatrix-MnWO4-final.dat
# preset_type = normal 
# preset_channel = mcu
# preset_value = 2.000000
# def_x = omega
# def_y = detector
# col_headers = 
#   Pt.      omega       time   detector    monitor        mcu         m2        chi        phi     2theta   slitb_bt   slitb_lf   slitb_rt   slitb_tp   slita_bt   slita_lf   slita_rt   slita_tp         a1         a2          h          k          l          e         ei    coldtip     sample       temp
      1   -18.0002      1.905      4.000  38601.000      2.000    41.5367   -26.8205  -168.3759   -38.9929    20.0000     5.0000     4.0000    24.0000    22.0000     4.0000     4.0000    22.0000    20.7702    41.5152    -0.2816     1.4769    -0.4889     0.0000    14.4503     4.7631    15.1144     4.800
      2   -18.1500      1.901      5.000  38601.000      2.000    41.5367   -26.8205  -168.3759   -38.9929    20.0000     5.0000     4.0000    24.0000    22.0000     4.0000     4.0000    22.0000    20.7702    41.5152    -0.2782     1.4776    -0.4894     0.0000    14.4503     4.7628    15.1135     4.800
      3   -18.2999      1.905      7.000  38601.000      2.000    41.5367   -26.8205  -168.3759   -38.9929    20.0000     5.0000     4.0000    24.0000    22.0000     4.0000     4.0000    22.0000    20.7702    41.5152    -0.2747     1.4782    -0.4900     0.0000    14.4503     4.7677    15.1136     4.800
      4   -18.4496      1.897      8.000  38601.000      2.000    41.5367   -26.8205  -168.3759   -38.9929    20.0000     5.0000     4.0000    24.0000    22.0000     4.0000     4.0000    22.0000    20.7702    41.5152    -0.2713     1.4788    -0.4905     0.0000    14.4503     4.7683    15.1149     4.800
      5   -18.5990      1.919     13.000  38601.000      2.000    41.5367   -26.8205  -168.3759   -38.9929    20.0000     5.0000     4.0000    24.0000    22.0000     4.0000     4.0000    22.0000    20.7702    41.5152    -0.2679     1.4795    -0.4911     0.0000    14.4503     4.7679    15.1145     4.800
      6   -18.7497      1.921     20.000  38601.000      2.000    41.5367   -26.8205  -168.3759   -38.9929    20.0000     5.0000     4.0000    24.0000    22.0000     4.0000     4.0000    22.0000    20.7702    41.5152    -0.2644     1.4801    -0.4916     0.0000    14.4503     4.7732    15.1138     4.800
      7   -18.8998      1.909    107.000  38601.000      2.000    41.5367   -26.8205  -168.3759   -38.9929    20.0000     5.0000     4.0000    24.0000    22.0000     4.0000     4.0000    22.0000    20.7702    41.5152    -0.2609     1.4807    -0.4922     0.0000    14.4503     4.7691    15.1158     4.800
      8   -19.0504      1.890    337.000  38601.000      2.000    41.5367   -26.8205  -168.3759   -38.9929    20.0000     5.0000     4.0000    24.0000    22.0000     4.0000     4.0000    22.0000    20.7702    41.5152    -0.2575     1.4813    -0.4927     0.0000    14.4503     4.7757    15.1148     4.800
      9   -19.2000      1.906    970.000  38601.000      2.000    41.5367   -26.8205  -168.3759   -38.9929    20.0000     5.0000     4.0000    24.0000    22.0000     4.0000     4.0000    22.0000    20.7702    41.5152    -0.2540     1.4819    -0.4933     0.0000    14.4503     4.7727    15.1158     4.800
     10   -19.3500      1.904   2268.000  38601.000      2.000    41.5367   -26.8205  -168.3759   -38.9929    20.0000     5.0000     4.0000    24.0000    22.0000     4.0000     4.0000    22.0000    20.7702    41.5152    -0.2505     1.4824    -0.4938     0.0000    14.4503     4.7729    15.1163     4.800
     11   -19.4997      1.902   2601.000  38601.000      2.000    41.5367   -26.8205  -168.3759   -38.9929    20.0000     5.0000     4.0000    24.0000    22.0000     4.0000     4.0000    22.0000    20.7702    41.5152    -0.2471     1.4830    -0.4943     0.0000    14.4503     4.7796    15.1167     4.800
     12   -19.6494      1.907   1198.000  38601.000      2.000    41.5367   -26.8205  -168.3759   -38.9929    20.0000     5.0000     4.0000    24.0000    22.0000     4.0000     4.0000    22.0000    20.7702    41.5152    -0.2436     1.4835    -0.4949     0.0000    14.4503     4.7758    15.1172     4.800
     13   -19.7992      1.898    288.000  38601.000      2.000    41.5367   -26.8205  -168.3759   -38.9929    20.0000     5.0000     4.0000    24.0000    22.0000     4.0000     4.0000    22.0000    20.7702    41.5152    -0.2402     1.4841    -0.4954     0.0000    14.4503     4.7823    15.1166     4.800
     14   -19.9504      1.901     98.000  38601.000      2.000    41.5367   -26.8205  -168.3759   -38.9929    20.0000     5.0000     4.0000    24.0000    22.0000     4.0000     4.0000    22.0000    20.7702    41.5152    -0.2367     1.4846    -0.4959     0.0000    14.4503     4.7769    15.1172     4.800
     15   -20.1001      1.893     38.000  38601.000      2.000    41.5367   -26.8205  -168.3759   -38.9929    20.0000     5.0000     4.0000    24.0000    22.0000     4.0000     4.0000    22.0000    20.7702    41.5152    -0.2332     1.4851    -0.4964     0.0000    14.4503     4.7785    15.1173     4.800
     16   -20.2500      1.903     34.000  38601.000      2.000    41.5367   -26.8205  -168.3759   -38.9929    20.0000     5.0000     4.0000    24.0000    22.0000     4.0000     4.0000    22.0000    20.7702    41.5152    -0.2297     1.4857    -0.4969     0.0000    14.4503     4.7844    15.1171     4.800
     17   -20.3997      1.890     17.000  38601.000      2.000    41.5367   -26.8205  -168.3759   -38.9929    20.0000     5.0000     4.0000    24.0000    22.0000     4.0000     4.0000    22.0000    20.7702    41.5152    -0.2263     1.4862    -0.4974     0.0000    14.4503     4.7801    15.1187     4.800
     18   -20.5497      1.913     12.000  38601.000      2.000    41.5367   -26.8205  -168.3759   -38.9929    20.0000     5.0000     4.0000    24.0000    22.0000     4.0000     4.0000    22.0000    20.7702    41.5152    -0.2228     1.4867    -0.4980     0.0000    14.4503     4.7864    15.1186     4.800
     19   -20.6991      1.891      4.000  38601.000      2.000    41.5367   -26.8205  -168.3759   -38.9929    20.0000     5.0000     4.0000    24.0000    22.0000     4.0000     4.0000    22.0000    20.7702    41.5152    -0.2193     1.4871    -0.4985     0.0000    14.4503     4.7828    15.1191     4.800
     20   -20.8499      1.891      8.000  38601.000      2.000    41.5367   -26.8205  -168.3759   -38.9929    20.0000     5.0000     4.0000    24.0000    22.0000     4.0000     4.0000    22.0000    20.7702    41.5152    -0.2159     1.4876    -0.4990     0.0000    14.4503     4.7870    15.1194     4.800
     21   -21.0003      1.890      7.000  38601.000      2.000    41.5367   -26.8205  -168.3759   -38.9929    20.0000     5.0000     4.0000    24.0000    22.0000     4.0000     4.0000    22.0000    20.7702    41.5152    -0.2124     1.4881    -0.4995     0.0000    14.4503     4.7870    15.1191     4.800
     22   -21.1499      1.881      4.000  38601.000      2.000    41.5367   -26.8205  -168.3759   -38.9929    20.0000     5.0000     4.0000    24.0000    22.0000     4.0000     4.0000    22.0000    20.7702    41.5152    -0.2089     1.4885    -0.4999     0.0000    14.4503     4.7891    15.1190     4.800
     23   -21.2999      1.907     10.000  38601.000      2.000    41.5367   -26.8205  -168.3759   -38.9929    20.0000     5.0000     4.0000    24.0000    22.0000     4.0000     4.0000    22.0000    20.7702    41.5152    -0.2054     1.4890    -0.5004     0.0000    14.4503     4.7889    15.1209     4.800
     24   -21.4500      1.883      4.000  38601.000      2.000    41.5367   -26.8205  -168.3759   -38.9929    20.0000     5.0000     4.0000    24.0000    22.0000     4.0000     4.0000    22.0000    20.7702    41.5152    -0.2019     1.4894    -0.5009     0.0000    14.4503     4.7848    15.1209     4.800
     25   -21.5991      1.903      5.000  38601.000      2.000    41.5367   -26.8205  -168.3759   -38.9929    20.0000     5.0000     4.0000    24.0000    22.0000     4.0000     4.0000    22.0000    20.7702    41.5152    -0.1985     1.4898    -0.5014     0.0000    14.4503     4.7870    15.1196     4.800
# Sum of Counts = 8067
# Center of Mass = -19.444278+/-0.306175
# Full Width Half-Maximum = 0.511471+/-0.139759
# 7:54:38 PM  2/22/2025   scan completed.
