# scan = 801
# date = 2/22/2025
# time = 8:28:52 PM
# proposal = 33477
# experiment = Commissioning and enabling the 4-circle capability at VERITAS
# experiment_number = 1046
# command = scan omega -18 -21.6 0.15
# builtin_command = scan omega -18 -21.6 0.15
# users = Feng Ye, Mike McDowell, Jiasen Guo, Adam Aczel, Kaleb Burrage, Wei Tian, Bing Li, Zachary Morgan
# local_contact = Wei Tian
# scan_title = MnWO4, (0.25 -1.5 0.5) & (0.216 -1.5 0.458) OP, at T = 8.3716 K, warming up
# monochromator = PG002
# analyzer = Pg002
# sense = +-+
# collimation = 40-40-40-80
# samplename = La2Ni7, MnWO4
# sampletype = crystal
# samplemosaic = 30.000000
# latticeconstants = 4.824069,5.755582,4.999231,89.932854,88.939129,90.018476
# ubmatrix = 0.016958,0.172722,0.013747,0.204090,-0.011993,-0.036006,-0.032332,0.014503,-0.196318
# mode = 0
# plane_normal = 0.000000,0.000000,0.000000
# ubconf = UBmatrix-MnWO4-final.dat
# preset_type = normal 
# preset_channel = mcu
# preset_value = 2.000000
# def_x = omega
# def_y = detector
# col_headers = 
#   Pt.      omega       time   detector    monitor        mcu         m2        chi        phi     2theta   slitb_bt   slitb_lf   slitb_rt   slitb_tp   slita_bt   slita_lf   slita_rt   slita_tp         a1         a2          h          k          l          e         ei    coldtip     sample       temp
      1   -18.0002      1.895      4.000  38601.000      2.000    41.5367   -26.8205  -168.3759   -38.9929    20.0000     5.0000     4.0000    24.0000    22.0000     4.0000     4.0000    22.0000    20.7702    41.5152    -0.2816     1.4769    -0.4889     0.0000    14.4503     8.3743    15.7740     8.400
      2   -18.1502      1.892     10.000  38601.000      2.000    41.5367   -26.8205  -168.3759   -38.9929    20.0000     5.0000     4.0000    24.0000    22.0000     4.0000     4.0000    22.0000    20.7702    41.5152    -0.2782     1.4776    -0.4894     0.0000    14.4503     8.3731    15.7758     8.400
      3   -18.2999      1.886      7.000  38601.000      2.000    41.5367   -26.8205  -168.3759   -38.9929    20.0000     5.0000     4.0000    24.0000    22.0000     4.0000     4.0000    22.0000    20.7702    41.5152    -0.2747     1.4782    -0.4900     0.0000    14.4503     8.3774    15.7777     8.400
      4   -18.4498      1.878     10.000  38601.000      2.000    41.5367   -26.8205  -168.3759   -38.9929    20.0000     5.0000     4.0000    24.0000    22.0000     4.0000     4.0000    22.0000    20.7702    41.5152    -0.2713     1.4788    -0.4905     0.0000    14.4503     8.3732    15.7803     8.400
      5   -18.5990      1.884      4.000  38601.000      2.000    41.5367   -26.8205  -168.3759   -38.9929    20.0000     5.0000     4.0000    24.0000    22.0000     4.0000     4.0000    22.0000    20.7702    41.5152    -0.2679     1.4795    -0.4911     0.0000    14.4503     8.3774    15.7823     8.400
      6   -18.7496      1.910      4.000  38601.000      2.000    41.5367   -26.8205  -168.3759   -38.9930    20.0000     5.0000     4.0000    24.0000    22.0000     4.0000     4.0000    22.0000    20.7702    41.5152    -0.2644     1.4801    -0.4916     0.0000    14.4503     8.3802    15.7842     8.400
      7   -18.9000      1.901      9.000  38601.000      2.000    41.5367   -26.8205  -168.3759   -38.9929    20.0000     5.0000     4.0000    24.0000    22.0000     4.0000     4.0000    22.0000    20.7702    41.5152    -0.2609     1.4807    -0.4922     0.0000    14.4503     8.3760    15.7844     8.400
      8   -19.0506      1.933      6.000  38601.000      2.000    41.5367   -26.8205  -168.3759   -38.9929    20.0000     5.0000     4.0000    24.0000    22.0000     4.0000     4.0000    22.0000    20.7702    41.5152    -0.2575     1.4813    -0.4927     0.0000    14.4503     8.3767    15.7872     8.400
      9   -19.1999      1.907      4.000  38601.000      2.000    41.5367   -26.8205  -168.3759   -38.9929    20.0000     5.0000     4.0000    24.0000    22.0000     4.0000     4.0000    22.0000    20.7702    41.5152    -0.2540     1.4819    -0.4933     0.0000    14.4503     8.3834    15.7883     8.400
     10   -19.3496      1.901      4.000  38601.000      2.000    41.5367   -26.8205  -168.3759   -38.9929    20.0000     5.0000     4.0000    24.0000    22.0000     4.0000     4.0000    22.0000    20.7702    41.5152    -0.2506     1.4824    -0.4938     0.0000    14.4503     8.3815    15.7907     8.400
     11   -19.4996      1.899      6.000  38601.000      2.000    41.5367   -26.8205  -168.3759   -38.9929    20.0000     5.0000     4.0000    24.0000    22.0000     4.0000     4.0000    22.0000    20.7702    41.5152    -0.2471     1.4830    -0.4943     0.0000    14.4503     8.3861    15.7915     8.400
     12   -19.6493      1.908      3.000  38601.000      2.000    41.5367   -26.8205  -168.3759   -38.9929    20.0000     5.0000     4.0000    24.0000    22.0000     4.0000     4.0000    22.0000    20.7702    41.5152    -0.2436     1.4835    -0.4949     0.0000    14.4503     8.3829    15.7941     8.400
     13   -19.7995      1.897      8.000  38601.000      2.000    41.5367   -26.8205  -168.3759   -38.9929    20.0000     5.0000     4.0000    24.0000    22.0000     4.0000     4.0000    22.0000    20.7702    41.5152    -0.2402     1.4841    -0.4954     0.0000    14.4503     8.3836    15.7959     8.400
     14   -19.9504      1.887     29.000  38601.000      2.000    41.5367   -26.8205  -168.3759   -38.9929    20.0000     5.0000     4.0000    24.0000    22.0000     4.0000     4.0000    22.0000    20.7702    41.5152    -0.2367     1.4846    -0.4959     0.0000    14.4503     8.3891    15.7967     8.400
     15   -20.1002      1.906    128.000  38601.000      2.000    41.5367   -26.8205  -168.3759   -38.9929    20.0000     5.0000     4.0000    24.0000    22.0000     4.0000     4.0000    22.0000    20.7702    41.5152    -0.2332     1.4851    -0.4964     0.0000    14.4503     8.3831    15.7984     8.400
     16   -20.2499      1.907    380.000  38601.000      2.000    41.5367   -26.8205  -168.3759   -38.9929    20.0000     5.0000     4.0000    24.0000    22.0000     4.0000     4.0000    22.0000    20.7702    41.5152    -0.2297     1.4857    -0.4969     0.0000    14.4503     8.3889    15.7999     8.400
     17   -20.3994      1.897   1109.000  38601.000      2.000    41.5367   -26.8205  -168.3759   -38.9929    20.0000     5.0000     4.0000    24.0000    22.0000     4.0000     4.0000    22.0000    20.7702    41.5152    -0.2263     1.4862    -0.4974     0.0000    14.4503     8.3844    15.8013     8.400
     18   -20.5496      1.904   2248.000  38601.000      2.000    41.5367   -26.8205  -168.3759   -38.9929    20.0000     5.0000     4.0000    24.0000    22.0000     4.0000     4.0000    22.0000    20.7702    41.5152    -0.2228     1.4867    -0.4980     0.0000    14.4503     8.3915    15.8031     8.400
     19   -20.6993      1.927   2421.000  38601.000      2.000    41.5367   -26.8205  -168.3759   -38.9929    20.0000     5.0000     4.0000    24.0000    22.0000     4.0000     4.0000    22.0000    20.7702    41.5152    -0.2193     1.4871    -0.4985     0.0000    14.4503     8.3909    15.8037     8.400
     20   -20.8500      1.884   1207.000  38601.000      2.000    41.5367   -26.8205  -168.3759   -38.9929    20.0000     5.0000     4.0000    24.0000    22.0000     4.0000     4.0000    22.0000    20.7702    41.5152    -0.2158     1.4876    -0.4990     0.0000    14.4503     8.3901    15.8050     8.400
     21   -21.0001      1.925    220.000  38601.000      2.000    41.5367   -26.8205  -168.3759   -38.9929    20.0000     5.0000     4.0000    24.0000    22.0000     4.0000     4.0000    22.0000    20.7702    41.5152    -0.2124     1.4881    -0.4995     0.0000    14.4503     8.3903    15.8065     8.400
     22   -21.1505      1.912     51.000  38601.000      2.000    41.5367   -26.8205  -168.3759   -38.9929    20.0000     5.0000     4.0000    24.0000    22.0000     4.0000     4.0000    22.0000    20.7702    41.5152    -0.2089     1.4885    -0.4999     0.0000    14.4503     8.3937    15.8089     8.400
     23   -21.2996      1.900     17.000  38601.000      2.000    41.5367   -26.8205  -168.3759   -38.9929    20.0000     5.0000     4.0000    24.0000    22.0000     4.0000     4.0000    22.0000    20.7702    41.5152    -0.2054     1.4890    -0.5004     0.0000    14.4503     8.3871    15.8105     8.400
     24   -21.4499      1.905     12.000  38601.000      2.000    41.5367   -26.8205  -168.3759   -38.9929    20.0000     5.0000     4.0000    24.0000    22.0000     4.0000     4.0000    22.0000    20.7702    41.5152    -0.2019     1.4894    -0.5009     0.0000    14.4503     8.3876    15.8108     8.400
     25   -21.5992      1.891      9.000  38601.000      2.000    41.5367   -26.8205  -168.3759   -38.9929    20.0000     5.0000     4.0000    24.0000    22.0000     4.0000     4.0000    22.0000    20.7702    41.5152    -0.1985     1.4898    -0.5014     0.0000    14.4503     8.3950    15.8078     8.400
# Sum of Counts = 7910
# Center of Mass = -20.599843+/-0.327574
# Full Width Half-Maximum = 0.544702+/-0.151259
# 8:30:15 PM  2/22/2025   scan completed.
