# scan = 824
# date = 2/22/2025
# time = 9:14:26 PM
# proposal = 33477
# experiment = Commissioning and enabling the 4-circle capability at VERITAS
# experiment_number = 1046
# command = scan omega -18 -21.6 0.15
# builtin_command = scan omega -18 -21.6 0.15
# users = Feng Ye, Mike McDowell, Jiasen Guo, Adam Aczel, Kaleb Burrage, Wei Tian, Bing Li, Zachary Morgan
# local_contact = Wei Tian
# scan_title = MnWO4, (0.25 -1.5 0.5) & (0.216 -1.5 0.458) OP, at T = 12.9939 K, warming up
# monochromator = PG002
# analyzer = Pg002
# sense = +-+
# collimation = 40-40-40-80
# samplename = La2Ni7, MnWO4
# sampletype = crystal
# samplemosaic = 30.000000
# latticeconstants = 4.824069,5.755582,4.999231,89.932854,88.939129,90.018476
# ubmatrix = 0.016958,0.172722,0.013747,0.204090,-0.011993,-0.036006,-0.032332,0.014503,-0.196318
# mode = 0
# plane_normal = 0.000000,0.000000,0.000000
# ubconf = UBmatrix-MnWO4-final.dat
# preset_type = normal 
# preset_channel = mcu
# preset_value = 2.000000
# def_x = omega
# def_y = detector
# col_headers = 
#   Pt.      omega       time   detector    monitor        mcu         m2        chi        phi     2theta   slitb_bt   slitb_lf   slitb_rt   slitb_tp   slita_bt   slita_lf   slita_rt   slita_tp         a1         a2          h          k          l          e         ei    coldtip     sample       temp
      1   -18.0003      1.908      7.000  38601.000      2.000    41.5367   -26.8205  -168.3759   -38.9931    20.0000     5.0000     4.0000    24.0000    22.0000     4.0000     4.0000    22.0000    20.7702    41.5152    -0.2816     1.4769    -0.4889     0.0000    14.4503    13.0046    18.1134    13.000
      2   -18.1500      1.904      7.000  38601.000      2.000    41.5367   -26.8205  -168.3759   -38.9931    20.0000     5.0000     4.0000    24.0000    22.0000     4.0000     4.0000    22.0000    20.7702    41.5152    -0.2782     1.4776    -0.4894     0.0000    14.4503    12.9917    18.1170    13.000
      3   -18.2999      1.911      6.000  38601.000      2.000    41.5367   -26.8205  -168.3759   -38.9931    20.0000     5.0000     4.0000    24.0000    22.0000     4.0000     4.0000    22.0000    20.7702    41.5152    -0.2747     1.4782    -0.4900     0.0000    14.4503    13.0065    18.1217    13.000
      4   -18.4497      1.897      4.000  38601.000      2.000    41.5367   -26.8205  -168.3759   -38.9931    20.0000     5.0000     4.0000    24.0000    22.0000     4.0000     4.0000    22.0000    20.7702    41.5152    -0.2713     1.4788    -0.4905     0.0000    14.4503    12.9933    18.1291    13.000
      5   -18.5993      1.903      9.000  38601.000      2.000    41.5367   -26.8205  -168.3759   -38.9931    20.0000     5.0000     4.0000    24.0000    22.0000     4.0000     4.0000    22.0000    20.7702    41.5152    -0.2679     1.4795    -0.4911     0.0000    14.4503    12.9937    18.1341    13.000
      6   -18.7495      1.909      5.000  38601.000      2.000    41.5367   -26.8205  -168.3759   -38.9931    20.0000     5.0000     4.0000    24.0000    22.0000     4.0000     4.0000    22.0000    20.7702    41.5152    -0.2644     1.4801    -0.4916     0.0000    14.4503    13.0070    18.1397    13.000
      7   -18.8996      1.895     11.000  38601.000      2.000    41.5367   -26.8205  -168.3759   -38.9931    20.0000     5.0000     4.0000    24.0000    22.0000     4.0000     4.0000    22.0000    20.7702    41.5152    -0.2609     1.4807    -0.4922     0.0000    14.4503    12.9953    18.1423    13.000
      8   -19.0506      1.911     11.000  38601.000      2.000    41.5367   -26.8205  -168.3759   -38.9931    20.0000     5.0000     4.0000    24.0000    22.0000     4.0000     4.0000    22.0000    20.7702    41.5152    -0.2575     1.4813    -0.4927     0.0000    14.4503    13.0021    18.1469    13.000
      9   -19.1996      1.894      7.000  38601.000      2.000    41.5367   -26.8205  -168.3759   -38.9931    20.0000     5.0000     4.0000    24.0000    22.0000     4.0000     4.0000    22.0000    20.7702    41.5152    -0.2540     1.4819    -0.4933     0.0000    14.4503    12.9981    18.1512    13.000
     10   -19.3500      1.920     14.000  38601.000      2.000    41.5367   -26.8205  -168.3759   -38.9931    20.0000     5.0000     4.0000    24.0000    22.0000     4.0000     4.0000    22.0000    20.7702    41.5152    -0.2506     1.4824    -0.4938     0.0000    14.4503    12.9965    18.1555    13.000
     11   -19.4994      1.905      6.000  38601.000      2.000    41.5367   -26.8205  -168.3759   -38.9931    20.0000     5.0000     4.0000    24.0000    22.0000     4.0000     4.0000    22.0000    20.7702    41.5152    -0.2471     1.4830    -0.4943     0.0000    14.4503    13.0113    18.1602    13.000
     12   -19.6492      1.907     10.000  38601.000      2.000    41.5367   -26.8205  -168.3759   -38.9931    20.0000     5.0000     4.0000    24.0000    22.0000     4.0000     4.0000    22.0000    20.7702    41.5152    -0.2436     1.4836    -0.4949     0.0000    14.4503    12.9976    18.1650    13.000
     13   -19.7993      1.908     12.000  38601.000      2.000    41.5367   -26.8205  -168.3759   -38.9931    20.0000     5.0000     4.0000    24.0000    22.0000     4.0000     4.0000    22.0000    20.7702    41.5152    -0.2402     1.4841    -0.4954     0.0000    14.4503    13.0035    18.1689    13.000
     14   -19.9504      1.908     16.000  38601.000      2.000    41.5367   -26.8205  -168.3759   -38.9931    20.0000     5.0000     4.0000    24.0000    22.0000     4.0000     4.0000    22.0000    20.7702    41.5152    -0.2367     1.4846    -0.4959     0.0000    14.4503    13.0087    18.1724    13.000
     15   -20.1003      1.900     19.000  38601.000      2.000    41.5367   -26.8205  -168.3759   -38.9931    20.0000     5.0000     4.0000    24.0000    22.0000     4.0000     4.0000    22.0000    20.7702    41.5152    -0.2332     1.4852    -0.4964     0.0000    14.4503    12.9978    18.1744    13.000
     16   -20.2502      1.887     44.000  38601.000      2.000    41.5367   -26.8205  -168.3759   -38.9931    20.0000     5.0000     4.0000    24.0000    22.0000     4.0000     4.0000    22.0000    20.7702    41.5152    -0.2297     1.4857    -0.4969     0.0000    14.4503    13.0021    18.1785    13.000
     17   -20.3996      1.915     92.000  38601.000      2.000    41.5367   -26.8205  -168.3759   -38.9931    20.0000     5.0000     4.0000    24.0000    22.0000     4.0000     4.0000    22.0000    20.7702    41.5152    -0.2263     1.4862    -0.4974     0.0000    14.4503    13.0085    18.1832    13.000
     18   -20.5496      1.906    187.000  38601.000      2.000    41.5367   -26.8205  -168.3759   -38.9931    20.0000     5.0000     4.0000    24.0000    22.0000     4.0000     4.0000    22.0000    20.7702    41.5152    -0.2228     1.4867    -0.4980     0.0000    14.4503    13.0005    18.1876    13.000
     19   -20.6990      1.902    304.000  38601.000      2.000    41.5367   -26.8205  -168.3759   -38.9931    20.0000     5.0000     4.0000    24.0000    22.0000     4.0000     4.0000    22.0000    20.7702    41.5152    -0.2194     1.4871    -0.4985     0.0000    14.4503    13.0127    18.1918    13.000
     20   -20.8498      1.907    260.000  38601.000      2.000    41.5367   -26.8205  -168.3759   -38.9931    20.0000     5.0000     4.0000    24.0000    22.0000     4.0000     4.0000    22.0000    20.7702    41.5152    -0.2159     1.4876    -0.4990     0.0000    14.4503    12.9999    18.1947    13.000
     21   -20.9999      1.899     91.000  38601.000      2.000    41.5367   -26.8205  -168.3759   -38.9931    20.0000     5.0000     4.0000    24.0000    22.0000     4.0000     4.0000    22.0000    20.7702    41.5152    -0.2124     1.4881    -0.4995     0.0000    14.4503    13.0072    18.1970    13.000
     22   -21.1505      1.892     27.000  38601.000      2.000    41.5367   -26.8205  -168.3759   -38.9931    20.0000     5.0000     4.0000    24.0000    22.0000     4.0000     4.0000    22.0000    20.7702    41.5152    -0.2089     1.4885    -0.4999     0.0000    14.4503    13.0020    18.2008    13.000
     23   -21.2996      1.906     15.000  38601.000      2.000    41.5367   -26.8205  -168.3759   -38.9931    20.0000     5.0000     4.0000    24.0000    22.0000     4.0000     4.0000    22.0000    20.7702    41.5152    -0.2054     1.4890    -0.5004     0.0000    14.4503    13.0009    18.2057    13.000
     24   -21.4501      1.881     12.000  38601.000      2.000    41.5367   -26.8205  -168.3759   -38.9931    20.0000     5.0000     4.0000    24.0000    22.0000     4.0000     4.0000    22.0000    20.7702    41.5152    -0.2019     1.4894    -0.5009     0.0000    14.4503    13.0123    18.2090    13.000
     25   -21.5990      1.882     12.000  38601.000      2.000    41.5367   -26.8205  -168.3759   -38.9931    20.0000     5.0000     4.0000    24.0000    22.0000     4.0000     4.0000    22.0000    20.7702    41.5152    -0.1985     1.4898    -0.5014     0.0000    14.4503    12.9983    18.2113    13.000
# Sum of Counts = 1188
# Center of Mass = -20.551230+/-0.843395
# Full Width Half-Maximum = 1.158601+/-0.287895
# 9:15:50 PM  2/22/2025   scan completed.
