# scan = 794
# date = 2/22/2025
# time = 8:15:03 PM
# proposal = 33477
# experiment = Commissioning and enabling the 4-circle capability at VERITAS
# experiment_number = 1046
# command = scan omega -18 -21.6 0.15
# builtin_command = scan omega -18 -21.6 0.15
# users = Feng Ye, Mike McDowell, Jiasen Guo, Adam Aczel, Kaleb Burrage, Wei Tian, Bing Li, Zachary Morgan
# local_contact = Wei Tian
# scan_title = MnWO4, (0.25 -1.5 0.5) & (0.216 -1.5 0.458) OP, at T = 6.9661 K, warming up
# monochromator = PG002
# analyzer = Pg002
# sense = +-+
# collimation = 40-40-40-80
# samplename = La2Ni7, MnWO4
# sampletype = crystal
# samplemosaic = 30.000000
# latticeconstants = 4.824069,5.755582,4.999231,89.932854,88.939129,90.018476
# ubmatrix = 0.016958,0.172722,0.013747,0.204090,-0.011993,-0.036006,-0.032332,0.014503,-0.196318
# mode = 0
# plane_normal = 0.000000,0.000000,0.000000
# ubconf = UBmatrix-MnWO4-final.dat
# preset_type = normal 
# preset_channel = mcu
# preset_value = 2.000000
# def_x = omega
# def_y = detector
# col_headers = 
#   Pt.      omega       time   detector    monitor        mcu         m2        chi        phi     2theta   slitb_bt   slitb_lf   slitb_rt   slitb_tp   slita_bt   slita_lf   slita_rt   slita_tp         a1         a2          h          k          l          e         ei    coldtip     sample       temp
      1   -18.0005      1.905      4.000  38601.000      2.000    41.5367   -26.8205  -168.3759   -38.9929    20.0000     5.0000     4.0000    24.0000    22.0000     4.0000     4.0000    22.0000    20.7702    41.5152    -0.2816     1.4769    -0.4889     0.0000    14.4503     6.9709    15.3972     7.000
      2   -18.1499      1.918      6.000  38601.000      2.000    41.5367   -26.8205  -168.3759   -38.9929    20.0000     5.0000     4.0000    24.0000    22.0000     4.0000     4.0000    22.0000    20.7702    41.5152    -0.2782     1.4776    -0.4894     0.0000    14.4503     6.9788    15.3976     7.000
      3   -18.2998      1.904      3.000  38601.000      2.000    41.5367   -26.8205  -168.3759   -38.9929    20.0000     5.0000     4.0000    24.0000    22.0000     4.0000     4.0000    22.0000    20.7702    41.5152    -0.2747     1.4782    -0.4900     0.0000    14.4503     6.9799    15.4005     7.000
      4   -18.4500      1.913      5.000  38601.000      2.000    41.5367   -26.8205  -168.3759   -38.9929    20.0000     5.0000     4.0000    24.0000    22.0000     4.0000     4.0000    22.0000    20.7702    41.5152    -0.2713     1.4788    -0.4905     0.0000    14.4503     6.9789    15.4012     7.000
      5   -18.5992      1.901     11.000  38601.000      2.000    41.5367   -26.8205  -168.3759   -38.9929    20.0000     5.0000     4.0000    24.0000    22.0000     4.0000     4.0000    22.0000    20.7702    41.5152    -0.2679     1.4795    -0.4911     0.0000    14.4503     6.9794    15.4032     7.000
      6   -18.7496      1.896     16.000  38601.000      2.000    41.5367   -26.8205  -168.3759   -38.9929    20.0000     5.0000     4.0000    24.0000    22.0000     4.0000     4.0000    22.0000    20.7702    41.5152    -0.2644     1.4801    -0.4916     0.0000    14.4503     6.9826    15.4027     7.000
      7   -18.9001      1.914     93.000  38601.000      2.000    41.5367   -26.8205  -168.3759   -38.9929    20.0000     5.0000     4.0000    24.0000    22.0000     4.0000     4.0000    22.0000    20.7702    41.5152    -0.2609     1.4807    -0.4922     0.0000    14.4503     6.9787    15.4045     7.000
      8   -19.0505      1.923    287.000  38601.000      2.000    41.5367   -26.8205  -168.3759   -38.9929    20.0000     5.0000     4.0000    24.0000    22.0000     4.0000     4.0000    22.0000    20.7702    41.5152    -0.2575     1.4813    -0.4927     0.0000    14.4503     6.9804    15.4050     7.000
      9   -19.1999      1.891    813.000  38601.000      2.000    41.5367   -26.8205  -168.3759   -38.9929    20.0000     5.0000     4.0000    24.0000    22.0000     4.0000     4.0000    22.0000    20.7702    41.5152    -0.2540     1.4819    -0.4933     0.0000    14.4503     6.9801    15.4072     7.000
     10   -19.3499      1.909   1986.000  38601.000      2.000    41.5367   -26.8205  -168.3759   -38.9929    20.0000     5.0000     4.0000    24.0000    22.0000     4.0000     4.0000    22.0000    20.7702    41.5152    -0.2505     1.4824    -0.4938     0.0000    14.4503     6.9849    15.4072     7.000
     11   -19.4996      1.907   2203.000  38601.000      2.000    41.5367   -26.8205  -168.3759   -38.9929    20.0000     5.0000     4.0000    24.0000    22.0000     4.0000     4.0000    22.0000    20.7702    41.5152    -0.2471     1.4830    -0.4943     0.0000    14.4503     6.9806    15.4094     7.000
     12   -19.6492      1.892   1055.000  38601.000      2.000    41.5367   -26.8205  -168.3759   -38.9929    20.0000     5.0000     4.0000    24.0000    22.0000     4.0000     4.0000    22.0000    20.7702    41.5152    -0.2436     1.4835    -0.4949     0.0000    14.4503     6.9884    15.4100     7.000
     13   -19.7993      1.903    269.000  38601.000      2.000    41.5367   -26.8205  -168.3759   -38.9929    20.0000     5.0000     4.0000    24.0000    22.0000     4.0000     4.0000    22.0000    20.7702    41.5152    -0.2402     1.4841    -0.4954     0.0000    14.4503     6.9826    15.4118     7.000
     14   -19.9508      1.895     82.000  38601.000      2.000    41.5367   -26.8205  -168.3759   -38.9929    20.0000     5.0000     4.0000    24.0000    22.0000     4.0000     4.0000    22.0000    20.7702    41.5152    -0.2367     1.4846    -0.4959     0.0000    14.4503     6.9900    15.4111     7.000
     15   -20.0999      1.886     39.000  38601.000      2.000    41.5367   -26.8205  -168.3759   -38.9929    20.0000     5.0000     4.0000    24.0000    22.0000     4.0000     4.0000    22.0000    20.7702    41.5152    -0.2332     1.4851    -0.4964     0.0000    14.4503     6.9838    15.4131     7.000
     16   -20.2500      1.902     33.000  38601.000      2.000    41.5367   -26.8205  -168.3759   -38.9929    20.0000     5.0000     4.0000    24.0000    22.0000     4.0000     4.0000    22.0000    20.7702    41.5152    -0.2297     1.4857    -0.4969     0.0000    14.4503     6.9890    15.4132     7.000
     17   -20.3995      1.922     54.000  38601.000      2.000    41.5367   -26.8205  -168.3759   -38.9929    20.0000     5.0000     4.0000    24.0000    22.0000     4.0000     4.0000    22.0000    20.7702    41.5152    -0.2263     1.4862    -0.4974     0.0000    14.4503     6.9846    15.4152     7.000
     18   -20.5495      1.896     68.000  38601.000      2.000    41.5367   -26.8205  -168.3759   -38.9929    20.0000     5.0000     4.0000    24.0000    22.0000     4.0000     4.0000    22.0000    20.7702    41.5152    -0.2228     1.4867    -0.4980     0.0000    14.4503     6.9916    15.4165     7.000
     19   -20.6994      1.904     66.000  38601.000      2.000    41.5367   -26.8205  -168.3759   -38.9929    20.0000     5.0000     4.0000    24.0000    22.0000     4.0000     4.0000    22.0000    20.7702    41.5152    -0.2193     1.4871    -0.4985     0.0000    14.4503     6.9859    15.4169     7.000
     20   -20.8498      1.903     47.000  38601.000      2.000    41.5367   -26.8205  -168.3759   -38.9929    20.0000     5.0000     4.0000    24.0000    22.0000     4.0000     4.0000    22.0000    20.7702    41.5152    -0.2159     1.4876    -0.4990     0.0000    14.4503     6.9929    15.4176     7.000
     21   -21.0004      1.908     21.000  38601.000      2.000    41.5367   -26.8205  -168.3759   -38.9929    20.0000     5.0000     4.0000    24.0000    22.0000     4.0000     4.0000    22.0000    20.7702    41.5152    -0.2124     1.4881    -0.4995     0.0000    14.4503     6.9934    15.4182     7.000
     22   -21.1499      1.898     11.000  38601.000      2.000    41.5367   -26.8205  -168.3759   -38.9929    20.0000     5.0000     4.0000    24.0000    22.0000     4.0000     4.0000    22.0000    20.7702    41.5152    -0.2089     1.4885    -0.4999     0.0000    14.4503     6.9887    15.4203     7.000
     23   -21.2997      1.882      5.000  38601.000      2.000    41.5367   -26.8205  -168.3759   -38.9929    20.0000     5.0000     4.0000    24.0000    22.0000     4.0000     4.0000    22.0000    20.7702    41.5152    -0.2054     1.4890    -0.5004     0.0000    14.4503     6.9913    15.4196     7.000
     24   -21.4500      1.910      4.000  38601.000      2.000    41.5367   -26.8205  -168.3759   -38.9929    20.0000     5.0000     4.0000    24.0000    22.0000     4.0000     4.0000    22.0000    20.7702    41.5152    -0.2019     1.4894    -0.5009     0.0000    14.4503     6.9949    15.4203     7.000
     25   -21.5992      1.926      6.000  38601.000      2.000    41.5367   -26.8205  -168.3759   -38.9929    20.0000     5.0000     4.0000    24.0000    22.0000     4.0000     4.0000    22.0000    20.7702    41.5152    -0.1985     1.4898    -0.5014     0.0000    14.4503     6.9892    15.4209     7.000
# Sum of Counts = 7187
# Center of Mass = -19.484973+/-0.325067
# Full Width Half-Maximum = 0.661646+/-0.124650
# 8:16:25 PM  2/22/2025   scan completed.
