# scan = 810
# date = 2/22/2025
# time = 8:46:38 PM
# proposal = 33477
# experiment = Commissioning and enabling the 4-circle capability at VERITAS
# experiment_number = 1046
# command = scan omega -18 -21.6 0.15
# builtin_command = scan omega -18 -21.6 0.15
# users = Feng Ye, Mike McDowell, Jiasen Guo, Adam Aczel, Kaleb Burrage, Wei Tian, Bing Li, Zachary Morgan
# local_contact = Wei Tian
# scan_title = MnWO4, (0.25 -1.5 0.5) & (0.216 -1.5 0.458) OP, at T = 10.1637 K, warming up
# monochromator = PG002
# analyzer = Pg002
# sense = +-+
# collimation = 40-40-40-80
# samplename = La2Ni7, MnWO4
# sampletype = crystal
# samplemosaic = 30.000000
# latticeconstants = 4.824069,5.755582,4.999231,89.932854,88.939129,90.018476
# ubmatrix = 0.016958,0.172722,0.013747,0.204090,-0.011993,-0.036006,-0.032332,0.014503,-0.196318
# mode = 0
# plane_normal = 0.000000,0.000000,0.000000
# ubconf = UBmatrix-MnWO4-final.dat
# preset_type = normal 
# preset_channel = mcu
# preset_value = 2.000000
# def_x = omega
# def_y = detector
# col_headers = 
#   Pt.      omega       time   detector    monitor        mcu         m2        chi        phi     2theta   slitb_bt   slitb_lf   slitb_rt   slitb_tp   slita_bt   slita_lf   slita_rt   slita_tp         a1         a2          h          k          l          e         ei    coldtip     sample       temp
      1   -18.0002      1.908      4.000  38601.000      2.000    41.5367   -26.8205  -168.3759   -38.9930    20.0000     5.0000     4.0000    24.0000    22.0000     4.0000     4.0000    22.0000    20.7702    41.5152    -0.2816     1.4769    -0.4889     0.0000    14.4503    10.1780    16.3551    10.200
      2   -18.1504      1.893      6.000  38601.000      2.000    41.5367   -26.8205  -168.3759   -38.9930    20.0000     5.0000     4.0000    24.0000    22.0000     4.0000     4.0000    22.0000    20.7702    41.5152    -0.2782     1.4776    -0.4894     0.0000    14.4503    10.1700    16.3574    10.200
      3   -18.2997      1.895      7.000  38601.000      2.000    41.5367   -26.8205  -168.3759   -38.9930    20.0000     5.0000     4.0000    24.0000    22.0000     4.0000     4.0000    22.0000    20.7702    41.5152    -0.2747     1.4782    -0.4900     0.0000    14.4503    10.1811    16.3604    10.200
      4   -18.4500      1.899      4.000  38601.000      2.000    41.5367   -26.8205  -168.3759   -38.9930    20.0000     5.0000     4.0000    24.0000    22.0000     4.0000     4.0000    22.0000    20.7702    41.5152    -0.2713     1.4788    -0.4905     0.0000    14.4503    10.1776    16.3625    10.200
      5   -18.5990      1.917      5.000  38601.000      2.000    41.5367   -26.8205  -168.3759   -38.9930    20.0000     5.0000     4.0000    24.0000    22.0000     4.0000     4.0000    22.0000    20.7702    41.5152    -0.2679     1.4795    -0.4911     0.0000    14.4503    10.1808    16.3652    10.200
      6   -18.7494      1.904     10.000  38601.000      2.000    41.5367   -26.8205  -168.3759   -38.9930    20.0000     5.0000     4.0000    24.0000    22.0000     4.0000     4.0000    22.0000    20.7702    41.5152    -0.2644     1.4801    -0.4916     0.0000    14.4503    10.1755    16.3669    10.200
      7   -18.9000      1.892      6.000  38601.000      2.000    41.5367   -26.8205  -168.3759   -38.9930    20.0000     5.0000     4.0000    24.0000    22.0000     4.0000     4.0000    22.0000    20.7702    41.5152    -0.2609     1.4807    -0.4922     0.0000    14.4503    10.1780    16.3693    10.200
      8   -19.0500      1.890      8.000  38601.000      2.000    41.5367   -26.8205  -168.3759   -38.9930    20.0000     5.0000     4.0000    24.0000    22.0000     4.0000     4.0000    22.0000    20.7702    41.5152    -0.2575     1.4813    -0.4927     0.0000    14.4503    10.1854    16.3721    10.200
      9   -19.2000      1.894      9.000  38601.000      2.000    41.5367   -26.8205  -168.3759   -38.9930    20.0000     5.0000     4.0000    24.0000    22.0000     4.0000     4.0000    22.0000    20.7702    41.5152    -0.2540     1.4819    -0.4933     0.0000    14.4503    10.1795    16.3749    10.200
     10   -19.3496      1.880      5.000  38601.000      2.000    41.5367   -26.8205  -168.3759   -38.9930    20.0000     5.0000     4.0000    24.0000    22.0000     4.0000     4.0000    22.0000    20.7702    41.5152    -0.2506     1.4824    -0.4938     0.0000    14.4503    10.1819    16.3773    10.200
     11   -19.4994      1.891      4.000  38601.000      2.000    41.5367   -26.8205  -168.3759   -38.9930    20.0000     5.0000     4.0000    24.0000    22.0000     4.0000     4.0000    22.0000    20.7702    41.5152    -0.2471     1.4830    -0.4943     0.0000    14.4503    10.1881    16.3799    10.200
     12   -19.6492      1.887      5.000  38601.000      2.000    41.5367   -26.8205  -168.3759   -38.9930    20.0000     5.0000     4.0000    24.0000    22.0000     4.0000     4.0000    22.0000    20.7702    41.5152    -0.2436     1.4835    -0.4949     0.0000    14.4503    10.1802    16.3824    10.200
     13   -19.7994      1.914     10.000  38601.000      2.000    41.5367   -26.8205  -168.3759   -38.9930    20.0000     5.0000     4.0000    24.0000    22.0000     4.0000     4.0000    22.0000    20.7702    41.5152    -0.2402     1.4841    -0.4954     0.0000    14.4503    10.1869    16.3839    10.200
     14   -19.9505      1.905     24.000  38601.000      2.000    41.5367   -26.8205  -168.3759   -38.9930    20.0000     5.0000     4.0000    24.0000    22.0000     4.0000     4.0000    22.0000    20.7702    41.5152    -0.2367     1.4846    -0.4959     0.0000    14.4503    10.1902    16.3855    10.200
     15   -20.1000      1.896     84.000  38601.000      2.000    41.5367   -26.8205  -168.3759   -38.9930    20.0000     5.0000     4.0000    24.0000    22.0000     4.0000     4.0000    22.0000    20.7702    41.5152    -0.2332     1.4851    -0.4964     0.0000    14.4503    10.1843    16.3876    10.200
     16   -20.2502      1.899    337.000  38601.000      2.000    41.5367   -26.8205  -168.3759   -38.9930    20.0000     5.0000     4.0000    24.0000    22.0000     4.0000     4.0000    22.0000    20.7702    41.5152    -0.2297     1.4857    -0.4969     0.0000    14.4503    10.1922    16.3894    10.200
     17   -20.3995      1.881    790.000  38601.000      2.000    41.5367   -26.8205  -168.3759   -38.9930    20.0000     5.0000     4.0000    24.0000    22.0000     4.0000     4.0000    22.0000    20.7702    41.5152    -0.2263     1.4862    -0.4974     0.0000    14.4503    10.1852    16.3930    10.200
     18   -20.5499      1.898   1762.000  38601.000      2.000    41.5367   -26.8205  -168.3759   -38.9930    20.0000     5.0000     4.0000    24.0000    22.0000     4.0000     4.0000    22.0000    20.7702    41.5152    -0.2228     1.4867    -0.4980     0.0000    14.4503    10.1938    16.3941    10.200
     19   -20.6989      1.908   1901.000  38601.000      2.000    41.5367   -26.8205  -168.3759   -38.9930    20.0000     5.0000     4.0000    24.0000    22.0000     4.0000     4.0000    22.0000    20.7702    41.5152    -0.2194     1.4871    -0.4985     0.0000    14.4503    10.1915    16.3959    10.200
     20   -20.8499      1.899   1057.000  38601.000      2.000    41.5367   -26.8205  -168.3759   -38.9930    20.0000     5.0000     4.0000    24.0000    22.0000     4.0000     4.0000    22.0000    20.7702    41.5152    -0.2159     1.4876    -0.4990     0.0000    14.4503    10.1851    16.3984    10.200
     21   -21.0003      1.875    206.000  38601.000      2.000    41.5367   -26.8205  -168.3759   -38.9930    20.0000     5.0000     4.0000    24.0000    22.0000     4.0000     4.0000    22.0000    20.7702    41.5152    -0.2124     1.4881    -0.4995     0.0000    14.4503    10.1901    16.4009    10.200
     22   -21.1504      1.899     51.000  38601.000      2.000    41.5367   -26.8205  -168.3759   -38.9930    20.0000     5.0000     4.0000    24.0000    22.0000     4.0000     4.0000    22.0000    20.7702    41.5152    -0.2089     1.4885    -0.4999     0.0000    14.4503    10.1866    16.4030    10.200
     23   -21.2997      1.890     20.000  38601.000      2.000    41.5367   -26.8205  -168.3759   -38.9930    20.0000     5.0000     4.0000    24.0000    22.0000     4.0000     4.0000    22.0000    20.7702    41.5152    -0.2054     1.4890    -0.5004     0.0000    14.4503    10.1901    16.4050    10.200
     24   -21.4498      1.885     11.000  38601.000      2.000    41.5367   -26.8205  -168.3759   -38.9930    20.0000     5.0000     4.0000    24.0000    22.0000     4.0000     4.0000    22.0000    20.7702    41.5152    -0.2019     1.4894    -0.5009     0.0000    14.4503    10.1894    16.4063    10.200
     25   -21.5994      1.912     16.000  38601.000      2.000    41.5367   -26.8205  -168.3759   -38.9930    20.0000     5.0000     4.0000    24.0000    22.0000     4.0000     4.0000    22.0000    20.7702    41.5152    -0.1985     1.4898    -0.5014     0.0000    14.4503    10.1904    16.4072    10.200
# Sum of Counts = 6342
# Center of Mass = -20.606773+/-0.365960
# Full Width Half-Maximum = 0.575796+/-0.161223
# 8:48:02 PM  2/22/2025   scan completed.
