# scan = 807
# date = 2/22/2025
# time = 8:40:40 PM
# proposal = 33477
# experiment = Commissioning and enabling the 4-circle capability at VERITAS
# experiment_number = 1046
# command = scan omega -18 -21.6 0.15
# builtin_command = scan omega -18 -21.6 0.15
# users = Feng Ye, Mike McDowell, Jiasen Guo, Adam Aczel, Kaleb Burrage, Wei Tian, Bing Li, Zachary Morgan
# local_contact = Wei Tian
# scan_title = MnWO4, (0.25 -1.5 0.5) & (0.216 -1.5 0.458) OP, at T = 9.5626 K, warming up
# monochromator = PG002
# analyzer = Pg002
# sense = +-+
# collimation = 40-40-40-80
# samplename = La2Ni7, MnWO4
# sampletype = crystal
# samplemosaic = 30.000000
# latticeconstants = 4.824069,5.755582,4.999231,89.932854,88.939129,90.018476
# ubmatrix = 0.016958,0.172722,0.013747,0.204090,-0.011993,-0.036006,-0.032332,0.014503,-0.196318
# mode = 0
# plane_normal = 0.000000,0.000000,0.000000
# ubconf = UBmatrix-MnWO4-final.dat
# preset_type = normal 
# preset_channel = mcu
# preset_value = 2.000000
# def_x = omega
# def_y = detector
# col_headers = 
#   Pt.      omega       time   detector    monitor        mcu         m2        chi        phi     2theta   slitb_bt   slitb_lf   slitb_rt   slitb_tp   slita_bt   slita_lf   slita_rt   slita_tp         a1         a2          h          k          l          e         ei    coldtip     sample       temp
      1   -18.0001      1.908      1.000  38601.000      2.000    41.5367   -26.8205  -168.3759   -38.9929    20.0000     5.0000     4.0000    24.0000    22.0000     4.0000     4.0000    22.0000    20.7702    41.5152    -0.2816     1.4769    -0.4889     0.0000    14.4503     9.5708    16.1409     9.600
      2   -18.1502      1.895      5.000  38601.000      2.000    41.5367   -26.8205  -168.3759   -38.9930    20.0000     5.0000     4.0000    24.0000    22.0000     4.0000     4.0000    22.0000    20.7702    41.5152    -0.2782     1.4776    -0.4894     0.0000    14.4503     9.5751    16.1414     9.600
      3   -18.2996      1.884      7.000  38601.000      2.000    41.5367   -26.8205  -168.3759   -38.9930    20.0000     5.0000     4.0000    24.0000    22.0000     4.0000     4.0000    22.0000    20.7702    41.5152    -0.2747     1.4782    -0.4900     0.0000    14.4503     9.5789    16.1435     9.600
      4   -18.4500      1.896      7.000  38601.000      2.000    41.5367   -26.8205  -168.3759   -38.9930    20.0000     5.0000     4.0000    24.0000    22.0000     4.0000     4.0000    22.0000    20.7702    41.5152    -0.2713     1.4788    -0.4905     0.0000    14.4503     9.5823    16.1461     9.600
      5   -18.5991      1.887      6.000  38601.000      2.000    41.5367   -26.8205  -168.3759   -38.9930    20.0000     5.0000     4.0000    24.0000    22.0000     4.0000     4.0000    22.0000    20.7702    41.5152    -0.2679     1.4795    -0.4911     0.0000    14.4503     9.5786    16.1478     9.600
      6   -18.7496      1.902      5.000  38601.000      2.000    41.5367   -26.8205  -168.3759   -38.9930    20.0000     5.0000     4.0000    24.0000    22.0000     4.0000     4.0000    22.0000    20.7702    41.5152    -0.2644     1.4801    -0.4916     0.0000    14.4503     9.5813    16.1501     9.600
      7   -18.8999      1.912     12.000  38601.000      2.000    41.5367   -26.8205  -168.3759   -38.9930    20.0000     5.0000     4.0000    24.0000    22.0000     4.0000     4.0000    22.0000    20.7702    41.5152    -0.2609     1.4807    -0.4922     0.0000    14.4503     9.5825    16.1505     9.600
      8   -19.0503      1.910      5.000  38601.000      2.000    41.5367   -26.8205  -168.3759   -38.9930    20.0000     5.0000     4.0000    24.0000    22.0000     4.0000     4.0000    22.0000    20.7702    41.5152    -0.2575     1.4813    -0.4927     0.0000    14.4503     9.5803    16.1530     9.600
      9   -19.2001      1.915      4.000  38601.000      2.000    41.5367   -26.8205  -168.3759   -38.9930    20.0000     5.0000     4.0000    24.0000    22.0000     4.0000     4.0000    22.0000    20.7702    41.5152    -0.2540     1.4819    -0.4933     0.0000    14.4503     9.5853    16.1532     9.600
     10   -19.3496      1.906      6.000  38601.000      2.000    41.5367   -26.8205  -168.3759   -38.9930    20.0000     5.0000     4.0000    24.0000    22.0000     4.0000     4.0000    22.0000    20.7702    41.5152    -0.2506     1.4824    -0.4938     0.0000    14.4503     9.5792    16.1550     9.600
     11   -19.4995      1.907      4.000  38601.000      2.000    41.5367   -26.8205  -168.3759   -38.9930    20.0000     5.0000     4.0000    24.0000    22.0000     4.0000     4.0000    22.0000    20.7702    41.5152    -0.2471     1.4830    -0.4943     0.0000    14.4503     9.5832    16.1559     9.600
     12   -19.6494      1.897      7.000  38601.000      2.000    41.5367   -26.8205  -168.3759   -38.9930    20.0000     5.0000     4.0000    24.0000    22.0000     4.0000     4.0000    22.0000    20.7702    41.5152    -0.2436     1.4835    -0.4949     0.0000    14.4503     9.5881    16.1564     9.600
     13   -19.7993      1.895     10.000  38601.000      2.000    41.5367   -26.8205  -168.3759   -38.9930    20.0000     5.0000     4.0000    24.0000    22.0000     4.0000     4.0000    22.0000    20.7702    41.5152    -0.2402     1.4841    -0.4954     0.0000    14.4503     9.5841    16.1577     9.600
     14   -19.9504      1.898     31.000  38601.000      2.000    41.5367   -26.8205  -168.3759   -38.9930    20.0000     5.0000     4.0000    24.0000    22.0000     4.0000     4.0000    22.0000    20.7702    41.5152    -0.2367     1.4846    -0.4959     0.0000    14.4503     9.5852    16.1579     9.600
     15   -20.1003      1.900    106.000  38601.000      2.000    41.5367   -26.8205  -168.3759   -38.9930    20.0000     5.0000     4.0000    24.0000    22.0000     4.0000     4.0000    22.0000    20.7702    41.5152    -0.2332     1.4851    -0.4964     0.0000    14.4503     9.5848    16.1600     9.600
     16   -20.2501      1.900    346.000  38601.000      2.000    41.5367   -26.8205  -168.3759   -38.9930    20.0000     5.0000     4.0000    24.0000    22.0000     4.0000     4.0000    22.0000    20.7702    41.5152    -0.2297     1.4857    -0.4969     0.0000    14.4503     9.5875    16.1608     9.600
     17   -20.3995      1.891    888.000  38601.000      2.000    41.5367   -26.8205  -168.3759   -38.9930    20.0000     5.0000     4.0000    24.0000    22.0000     4.0000     4.0000    22.0000    20.7702    41.5152    -0.2263     1.4862    -0.4974     0.0000    14.4503     9.5841    16.1620     9.600
     18   -20.5495      1.910   1956.000  38601.000      2.000    41.5367   -26.8205  -168.3759   -38.9930    20.0000     5.0000     4.0000    24.0000    22.0000     4.0000     4.0000    22.0000    20.7702    41.5152    -0.2228     1.4867    -0.4980     0.0000    14.4503     9.5921    16.1628     9.600
     19   -20.6992      1.892   2116.000  38601.000      2.000    41.5367   -26.8205  -168.3759   -38.9930    20.0000     5.0000     4.0000    24.0000    22.0000     4.0000     4.0000    22.0000    20.7702    41.5152    -0.2193     1.4871    -0.4985     0.0000    14.4503     9.5886    16.1643     9.600
     20   -20.8498      1.925   1041.000  38601.000      2.000    41.5367   -26.8205  -168.3759   -38.9930    20.0000     5.0000     4.0000    24.0000    22.0000     4.0000     4.0000    22.0000    20.7702    41.5152    -0.2159     1.4876    -0.4990     0.0000    14.4503     9.5933    16.1650     9.600
     21   -21.0003      1.905    191.000  38601.000      2.000    41.5367   -26.8205  -168.3759   -38.9930    20.0000     5.0000     4.0000    24.0000    22.0000     4.0000     4.0000    22.0000    20.7702    41.5152    -0.2124     1.4881    -0.4995     0.0000    14.4503     9.5887    16.1676     9.600
     22   -21.1501      1.895     44.000  38601.000      2.000    41.5367   -26.8205  -168.3759   -38.9930    20.0000     5.0000     4.0000    24.0000    22.0000     4.0000     4.0000    22.0000    20.7702    41.5152    -0.2089     1.4885    -0.4999     0.0000    14.4503     9.5956    16.1679     9.600
     23   -21.2997      1.917     21.000  38601.000      2.000    41.5367   -26.8205  -168.3759   -38.9930    20.0000     5.0000     4.0000    24.0000    22.0000     4.0000     4.0000    22.0000    20.7702    41.5152    -0.2054     1.4890    -0.5004     0.0000    14.4503     9.5894    16.1693     9.600
     24   -21.4498      1.911     17.000  38601.000      2.000    41.5367   -26.8205  -168.3759   -38.9930    20.0000     5.0000     4.0000    24.0000    22.0000     4.0000     4.0000    22.0000    20.7702    41.5152    -0.2019     1.4894    -0.5009     0.0000    14.4503     9.5963    16.1700     9.600
     25   -21.5993      1.891     12.000  38601.000      2.000    41.5367   -26.8205  -168.3759   -38.9930    20.0000     5.0000     4.0000    24.0000    22.0000     4.0000     4.0000    22.0000    20.7702    41.5152    -0.1985     1.4898    -0.5014     0.0000    14.4503     9.5881    16.1712     9.600
# Sum of Counts = 6848
# Center of Mass = -20.601924+/-0.352095
# Full Width Half-Maximum = 0.548797+/-0.159151
# 8:42:03 PM  2/22/2025   scan completed.
