# scan = 816
# date = 2/22/2025
# time = 8:58:29 PM
# proposal = 33477
# experiment = Commissioning and enabling the 4-circle capability at VERITAS
# experiment_number = 1046
# command = scan omega -18 -21.6 0.15
# builtin_command = scan omega -18 -21.6 0.15
# users = Feng Ye, Mike McDowell, Jiasen Guo, Adam Aczel, Kaleb Burrage, Wei Tian, Bing Li, Zachary Morgan
# local_contact = Wei Tian
# scan_title = MnWO4, (0.25 -1.5 0.5) & (0.216 -1.5 0.458) OP, at T = 11.3683 K, warming up
# monochromator = PG002
# analyzer = Pg002
# sense = +-+
# collimation = 40-40-40-80
# samplename = La2Ni7, MnWO4
# sampletype = crystal
# samplemosaic = 30.000000
# latticeconstants = 4.824069,5.755582,4.999231,89.932854,88.939129,90.018476
# ubmatrix = 0.016958,0.172722,0.013747,0.204090,-0.011993,-0.036006,-0.032332,0.014503,-0.196318
# mode = 0
# plane_normal = 0.000000,0.000000,0.000000
# ubconf = UBmatrix-MnWO4-final.dat
# preset_type = normal 
# preset_channel = mcu
# preset_value = 2.000000
# def_x = omega
# def_y = detector
# col_headers = 
#   Pt.      omega       time   detector    monitor        mcu         m2        chi        phi     2theta   slitb_bt   slitb_lf   slitb_rt   slitb_tp   slita_bt   slita_lf   slita_rt   slita_tp         a1         a2          h          k          l          e         ei    coldtip     sample       temp
      1   -18.0001      1.903      4.000  38601.000      2.000    41.5367   -26.8205  -168.3759   -38.9931    20.0000     5.0000     4.0000    24.0000    22.0000     4.0000     4.0000    22.0000    20.7702    41.5152    -0.2816     1.4769    -0.4889     0.0000    14.4503    11.3798    16.8578    11.400
      2   -18.1501      1.893      5.000  38601.000      2.000    41.5367   -26.8205  -168.3759   -38.9931    20.0000     5.0000     4.0000    24.0000    22.0000     4.0000     4.0000    22.0000    20.7702    41.5152    -0.2782     1.4776    -0.4894     0.0000    14.4503    11.3724    16.8608    11.400
      3   -18.2998      1.909      4.000  38601.000      2.000    41.5367   -26.8205  -168.3759   -38.9931    20.0000     5.0000     4.0000    24.0000    22.0000     4.0000     4.0000    22.0000    20.7702    41.5152    -0.2747     1.4782    -0.4900     0.0000    14.4503    11.3829    16.8636    11.400
      4   -18.4502      1.887      7.000  38601.000      2.000    41.5367   -26.8205  -168.3759   -38.9931    20.0000     5.0000     4.0000    24.0000    22.0000     4.0000     4.0000    22.0000    20.7702    41.5152    -0.2713     1.4788    -0.4905     0.0000    14.4503    11.3756    16.8671    11.400
      5   -18.5987      1.920      6.000  38601.000      2.000    41.5367   -26.8205  -168.3759   -38.9931    20.0000     5.0000     4.0000    24.0000    22.0000     4.0000     4.0000    22.0000    20.7702    41.5152    -0.2679     1.4795    -0.4911     0.0000    14.4503    11.3836    16.8710    11.400
      6   -18.7499      1.900     10.000  38601.000      2.000    41.5367   -26.8205  -168.3759   -38.9931    20.0000     5.0000     4.0000    24.0000    22.0000     4.0000     4.0000    22.0000    20.7702    41.5152    -0.2644     1.4801    -0.4916     0.0000    14.4503    11.3878    16.8708    11.400
      7   -18.8998      1.904      3.000  38601.000      2.000    41.5367   -26.8205  -168.3759   -38.9931    20.0000     5.0000     4.0000    24.0000    22.0000     4.0000     4.0000    22.0000    20.7702    41.5152    -0.2609     1.4807    -0.4922     0.0000    14.4503    11.3823    16.8749    11.400
      8   -19.0504      1.884      4.000  38601.000      2.000    41.5367   -26.8205  -168.3759   -38.9931    20.0000     5.0000     4.0000    24.0000    22.0000     4.0000     4.0000    22.0000    20.7702    41.5152    -0.2575     1.4813    -0.4927     0.0000    14.4503    11.3822    16.8767    11.400
      9   -19.1999      1.885      2.000  38601.000      2.000    41.5367   -26.8205  -168.3759   -38.9931    20.0000     5.0000     4.0000    24.0000    22.0000     4.0000     4.0000    22.0000    20.7702    41.5152    -0.2540     1.4819    -0.4933     0.0000    14.4503    11.3920    16.8801    11.400
     10   -19.3501      1.890      3.000  38601.000      2.000    41.5367   -26.8205  -168.3759   -38.9931    20.0000     5.0000     4.0000    24.0000    22.0000     4.0000     4.0000    22.0000    20.7702    41.5152    -0.2505     1.4824    -0.4938     0.0000    14.4503    11.3803    16.8836    11.400
     11   -19.4996      1.885      3.000  38601.000      2.000    41.5367   -26.8205  -168.3759   -38.9931    20.0000     5.0000     4.0000    24.0000    22.0000     4.0000     4.0000    22.0000    20.7702    41.5152    -0.2471     1.4830    -0.4943     0.0000    14.4503    11.3915    16.8864    11.400
     12   -19.6491      1.908     10.000  38601.000      2.000    41.5367   -26.8205  -168.3759   -38.9931    20.0000     5.0000     4.0000    24.0000    22.0000     4.0000     4.0000    22.0000    20.7702    41.5152    -0.2436     1.4836    -0.4949     0.0000    14.4503    11.3866    16.8884    11.400
     13   -19.7997      1.891     12.000  38601.000      2.000    41.5367   -26.8205  -168.3759   -38.9931    20.0000     5.0000     4.0000    24.0000    22.0000     4.0000     4.0000    22.0000    20.7702    41.5152    -0.2402     1.4841    -0.4954     0.0000    14.4503    11.3857    16.8902    11.400
     14   -19.9501      1.901     12.000  38601.000      2.000    41.5367   -26.8205  -168.3759   -38.9931    20.0000     5.0000     4.0000    24.0000    22.0000     4.0000     4.0000    22.0000    20.7702    41.5152    -0.2367     1.4846    -0.4959     0.0000    14.4503    11.3861    16.8904    11.400
     15   -20.1002      1.899     65.000  38601.000      2.000    41.5367   -26.8205  -168.3759   -38.9931    20.0000     5.0000     4.0000    24.0000    22.0000     4.0000     4.0000    22.0000    20.7702    41.5152    -0.2332     1.4852    -0.4964     0.0000    14.4503    11.3895    16.8935    11.400
     16   -20.2501      1.900    184.000  38601.000      2.000    41.5367   -26.8205  -168.3759   -38.9931    20.0000     5.0000     4.0000    24.0000    22.0000     4.0000     4.0000    22.0000    20.7702    41.5152    -0.2297     1.4857    -0.4969     0.0000    14.4503    11.3950    16.8964    11.400
     17   -20.3997      1.892    497.000  38601.000      2.000    41.5367   -26.8205  -168.3759   -38.9931    20.0000     5.0000     4.0000    24.0000    22.0000     4.0000     4.0000    22.0000    20.7702    41.5152    -0.2263     1.4862    -0.4974     0.0000    14.4503    11.3884    16.8972    11.400
     18   -20.5496      1.902   1171.000  38601.000      2.000    41.5367   -26.8205  -168.3759   -38.9931    20.0000     5.0000     4.0000    24.0000    22.0000     4.0000     4.0000    22.0000    20.7702    41.5152    -0.2228     1.4867    -0.4980     0.0000    14.4503    11.3989    16.8982    11.400
     19   -20.6990      1.883   1378.000  38601.000      2.000    41.5367   -26.8205  -168.3759   -38.9931    20.0000     5.0000     4.0000    24.0000    22.0000     4.0000     4.0000    22.0000    20.7702    41.5152    -0.2193     1.4871    -0.4985     0.0000    14.4503    11.3870    16.9009    11.400
     20   -20.8498      1.911    779.000  38601.000      2.000    41.5367   -26.8205  -168.3759   -38.9931    20.0000     5.0000     4.0000    24.0000    22.0000     4.0000     4.0000    22.0000    20.7702    41.5152    -0.2159     1.4876    -0.4990     0.0000    14.4503    11.3990    16.9031    11.400
     21   -21.0002      1.897    196.000  38601.000      2.000    41.5367   -26.8205  -168.3759   -38.9931    20.0000     5.0000     4.0000    24.0000    22.0000     4.0000     4.0000    22.0000    20.7702    41.5152    -0.2124     1.4881    -0.4995     0.0000    14.4503    11.3963    16.9058    11.400
     22   -21.1502      1.908     39.000  38601.000      2.000    41.5367   -26.8205  -168.3759   -38.9931    20.0000     5.0000     4.0000    24.0000    22.0000     4.0000     4.0000    22.0000    20.7702    41.5152    -0.2089     1.4885    -0.4999     0.0000    14.4503    11.3872    16.9080    11.400
     23   -21.2999      1.916     13.000  38601.000      2.000    41.5367   -26.8205  -168.3759   -38.9931    20.0000     5.0000     4.0000    24.0000    22.0000     4.0000     4.0000    22.0000    20.7702    41.5152    -0.2054     1.4890    -0.5004     0.0000    14.4503    11.3989    16.9098    11.400
     24   -21.4500      1.892     11.000  38601.000      2.000    41.5367   -26.8205  -168.3759   -38.9931    20.0000     5.0000     4.0000    24.0000    22.0000     4.0000     4.0000    22.0000    20.7702    41.5152    -0.2019     1.4894    -0.5009     0.0000    14.4503    11.3952    16.9109    11.400
     25   -21.5990      1.890     13.000  38601.000      2.000    41.5367   -26.8205  -168.3759   -38.9931    20.0000     5.0000     4.0000    24.0000    22.0000     4.0000     4.0000    22.0000    20.7702    41.5152    -0.1985     1.4898    -0.5014     0.0000    14.4503    11.3896    16.9129    11.400
# Sum of Counts = 4431
# Center of Mass = -20.618381+/-0.438069
# Full Width Half-Maximum = 0.611276+/-0.180673
# 8:59:55 PM  2/22/2025   scan completed.
