# scan = 805
# date = 2/22/2025
# time = 8:36:42 PM
# proposal = 33477
# experiment = Commissioning and enabling the 4-circle capability at VERITAS
# experiment_number = 1046
# command = scan omega -18 -21.6 0.15
# builtin_command = scan omega -18 -21.6 0.15
# users = Feng Ye, Mike McDowell, Jiasen Guo, Adam Aczel, Kaleb Burrage, Wei Tian, Bing Li, Zachary Morgan
# local_contact = Wei Tian
# scan_title = MnWO4, (0.25 -1.5 0.5) & (0.216 -1.5 0.458) OP, at T = 9.169 K, warming up
# monochromator = PG002
# analyzer = Pg002
# sense = +-+
# collimation = 40-40-40-80
# samplename = La2Ni7, MnWO4
# sampletype = crystal
# samplemosaic = 30.000000
# latticeconstants = 4.824069,5.755582,4.999231,89.932854,88.939129,90.018476
# ubmatrix = 0.016958,0.172722,0.013747,0.204090,-0.011993,-0.036006,-0.032332,0.014503,-0.196318
# mode = 0
# plane_normal = 0.000000,0.000000,0.000000
# ubconf = UBmatrix-MnWO4-final.dat
# preset_type = normal 
# preset_channel = mcu
# preset_value = 2.000000
# def_x = omega
# def_y = detector
# col_headers = 
#   Pt.      omega       time   detector    monitor        mcu         m2        chi        phi     2theta   slitb_bt   slitb_lf   slitb_rt   slitb_tp   slita_bt   slita_lf   slita_rt   slita_tp         a1         a2          h          k          l          e         ei    coldtip     sample       temp
      1   -18.0003      1.904      3.000  38601.000      2.000    41.5367   -26.8205  -168.3759   -38.9930    20.0000     5.0000     4.0000    24.0000    22.0000     4.0000     4.0000    22.0000    20.7702    41.5152    -0.2816     1.4769    -0.4889     0.0000    14.4503     9.1717    16.0092     9.200
      2   -18.1501      1.907      5.000  38601.000      2.000    41.5367   -26.8205  -168.3759   -38.9930    20.0000     5.0000     4.0000    24.0000    22.0000     4.0000     4.0000    22.0000    20.7702    41.5152    -0.2782     1.4776    -0.4894     0.0000    14.4503     9.1699    16.0115     9.200
      3   -18.2997      1.904      7.000  38601.000      2.000    41.5367   -26.8205  -168.3759   -38.9930    20.0000     5.0000     4.0000    24.0000    22.0000     4.0000     4.0000    22.0000    20.7702    41.5152    -0.2747     1.4782    -0.4900     0.0000    14.4503     9.1757    16.0128     9.200
      4   -18.4497      1.906      6.000  38601.000      2.000    41.5367   -26.8205  -168.3759   -38.9930    20.0000     5.0000     4.0000    24.0000    22.0000     4.0000     4.0000    22.0000    20.7702    41.5152    -0.2713     1.4788    -0.4905     0.0000    14.4503     9.1720    16.0147     9.200
      5   -18.5992      1.897      6.000  38601.000      2.000    41.5367   -26.8205  -168.3759   -38.9930    20.0000     5.0000     4.0000    24.0000    22.0000     4.0000     4.0000    22.0000    20.7702    41.5152    -0.2679     1.4795    -0.4911     0.0000    14.4503     9.1798    16.0163     9.200
      6   -18.7496      1.894      3.000  38601.000      2.000    41.5367   -26.8205  -168.3759   -38.9930    20.0000     5.0000     4.0000    24.0000    22.0000     4.0000     4.0000    22.0000    20.7702    41.5152    -0.2644     1.4801    -0.4916     0.0000    14.4503     9.1765    16.0187     9.200
      7   -18.8999      1.880     10.000  38601.000      2.000    41.5367   -26.8205  -168.3759   -38.9930    20.0000     5.0000     4.0000    24.0000    22.0000     4.0000     4.0000    22.0000    20.7702    41.5152    -0.2609     1.4807    -0.4922     0.0000    14.4503     9.1769    16.0207     9.200
      8   -19.0506      1.887      5.000  38601.000      2.000    41.5367   -26.8205  -168.3759   -38.9930    20.0000     5.0000     4.0000    24.0000    22.0000     4.0000     4.0000    22.0000    20.7702    41.5152    -0.2575     1.4813    -0.4927     0.0000    14.4503     9.1777    16.0242     9.200
      9   -19.2000      1.886      5.000  38601.000      2.000    41.5367   -26.8205  -168.3759   -38.9930    20.0000     5.0000     4.0000    24.0000    22.0000     4.0000     4.0000    22.0000    20.7702    41.5152    -0.2540     1.4819    -0.4933     0.0000    14.4503     9.1797    16.0261     9.200
     10   -19.3497      1.901      1.000  38601.000      2.000    41.5367   -26.8205  -168.3759   -38.9930    20.0000     5.0000     4.0000    24.0000    22.0000     4.0000     4.0000    22.0000    20.7702    41.5152    -0.2506     1.4824    -0.4938     0.0000    14.4503     9.1847    16.0287     9.200
     11   -19.4994      1.887      4.000  38601.000      2.000    41.5367   -26.8205  -168.3759   -38.9930    20.0000     5.0000     4.0000    24.0000    22.0000     4.0000     4.0000    22.0000    20.7702    41.5152    -0.2471     1.4830    -0.4943     0.0000    14.4503     9.1789    16.0314     9.200
     12   -19.6491      1.917      5.000  38601.000      2.000    41.5367   -26.8205  -168.3759   -38.9930    20.0000     5.0000     4.0000    24.0000    22.0000     4.0000     4.0000    22.0000    20.7702    41.5152    -0.2436     1.4835    -0.4949     0.0000    14.4503     9.1874    16.0332     9.200
     13   -19.7994      1.893     12.000  38601.000      2.000    41.5367   -26.8205  -168.3759   -38.9930    20.0000     5.0000     4.0000    24.0000    22.0000     4.0000     4.0000    22.0000    20.7702    41.5152    -0.2402     1.4841    -0.4954     0.0000    14.4503     9.1809    16.0354     9.200
     14   -19.9506      1.900     25.000  38601.000      2.000    41.5367   -26.8205  -168.3759   -38.9929    20.0000     5.0000     4.0000    24.0000    22.0000     4.0000     4.0000    22.0000    20.7702    41.5152    -0.2367     1.4846    -0.4959     0.0000    14.4503     9.1893    16.0359     9.200
     15   -20.0999      1.908     98.000  38601.000      2.000    41.5367   -26.8205  -168.3759   -38.9930    20.0000     5.0000     4.0000    24.0000    22.0000     4.0000     4.0000    22.0000    20.7702    41.5152    -0.2332     1.4851    -0.4964     0.0000    14.4503     9.1855    16.0371     9.200
     16   -20.2503      1.899    376.000  38601.000      2.000    41.5367   -26.8205  -168.3759   -38.9930    20.0000     5.0000     4.0000    24.0000    22.0000     4.0000     4.0000    22.0000    20.7702    41.5152    -0.2297     1.4857    -0.4969     0.0000    14.4503     9.1833    16.0386     9.200
     17   -20.3995      1.904    957.000  38601.000      2.000    41.5367   -26.8205  -168.3759   -38.9929    20.0000     5.0000     4.0000    24.0000    22.0000     4.0000     4.0000    22.0000    20.7702    41.5152    -0.2263     1.4862    -0.4974     0.0000    14.4503     9.1916    16.0390     9.200
     18   -20.5497      1.918   2054.000  38601.000      2.000    41.5367   -26.8205  -168.3759   -38.9930    20.0000     5.0000     4.0000    24.0000    22.0000     4.0000     4.0000    22.0000    20.7702    41.5152    -0.2228     1.4867    -0.4980     0.0000    14.4503     9.1844    16.0422     9.200
     19   -20.6990      1.900   2141.000  38601.000      2.000    41.5367   -26.8205  -168.3759   -38.9929    20.0000     5.0000     4.0000    24.0000    22.0000     4.0000     4.0000    22.0000    20.7702    41.5152    -0.2193     1.4871    -0.4985     0.0000    14.4503     9.1919    16.0429     9.200
     20   -20.8497      1.897   1033.000  38601.000      2.000    41.5367   -26.8205  -168.3759   -38.9930    20.0000     5.0000     4.0000    24.0000    22.0000     4.0000     4.0000    22.0000    20.7702    41.5152    -0.2159     1.4876    -0.4990     0.0000    14.4503     9.1850    16.0450     9.200
     21   -21.0003      1.904    214.000  38601.000      2.000    41.5367   -26.8205  -168.3759   -38.9929    20.0000     5.0000     4.0000    24.0000    22.0000     4.0000     4.0000    22.0000    20.7702    41.5152    -0.2124     1.4881    -0.4995     0.0000    14.4503     9.1927    16.0472     9.200
     22   -21.1505      1.904     58.000  38601.000      2.000    41.5367   -26.8205  -168.3759   -38.9930    20.0000     5.0000     4.0000    24.0000    22.0000     4.0000     4.0000    22.0000    20.7702    41.5152    -0.2089     1.4885    -0.4999     0.0000    14.4503     9.1864    16.0485     9.200
     23   -21.2997      1.905     25.000  38601.000      2.000    41.5367   -26.8205  -168.3759   -38.9929    20.0000     5.0000     4.0000    24.0000    22.0000     4.0000     4.0000    22.0000    20.7702    41.5152    -0.2054     1.4890    -0.5004     0.0000    14.4503     9.1885    16.0494     9.200
     24   -21.4499      1.895     15.000  38601.000      2.000    41.5367   -26.8205  -168.3759   -38.9929    20.0000     5.0000     4.0000    24.0000    22.0000     4.0000     4.0000    22.0000    20.7702    41.5152    -0.2019     1.4894    -0.5009     0.0000    14.4503     9.1874    16.0510     9.200
     25   -21.5991      1.898     10.000  38601.000      2.000    41.5367   -26.8205  -168.3759   -38.9929    20.0000     5.0000     4.0000    24.0000    22.0000     4.0000     4.0000    22.0000    20.7702    41.5152    -0.1985     1.4898    -0.5014     0.0000    14.4503     9.1927    16.0514     9.200
# Sum of Counts = 7078
# Center of Mass = -20.602462+/-0.346336
# Full Width Half-Maximum = 0.538783+/-0.158323
# 8:38:05 PM  2/22/2025   scan completed.
