# scan = 831
# date = 2/22/2025
# time = 9:28:19 PM
# proposal = 33477
# experiment = Commissioning and enabling the 4-circle capability at VERITAS
# experiment_number = 1046
# command = scan omega -18 -21.6 0.15
# builtin_command = scan omega -18 -21.6 0.15
# users = Feng Ye, Mike McDowell, Jiasen Guo, Adam Aczel, Kaleb Burrage, Wei Tian, Bing Li, Zachary Morgan
# local_contact = Wei Tian
# scan_title = MnWO4, (0.25 -1.5 0.5) & (0.216 -1.5 0.458) OP, at T = 14.3945 K, warming up
# monochromator = PG002
# analyzer = Pg002
# sense = +-+
# collimation = 40-40-40-80
# samplename = La2Ni7, MnWO4
# sampletype = crystal
# samplemosaic = 30.000000
# latticeconstants = 4.824069,5.755582,4.999231,89.932854,88.939129,90.018476
# ubmatrix = 0.016958,0.172722,0.013747,0.204090,-0.011993,-0.036006,-0.032332,0.014503,-0.196318
# mode = 0
# plane_normal = 0.000000,0.000000,0.000000
# ubconf = UBmatrix-MnWO4-final.dat
# preset_type = normal 
# preset_channel = mcu
# preset_value = 2.000000
# def_x = omega
# def_y = detector
# col_headers = 
#   Pt.      omega       time   detector    monitor        mcu         m2        chi        phi     2theta   slitb_bt   slitb_lf   slitb_rt   slitb_tp   slita_bt   slita_lf   slita_rt   slita_tp         a1         a2          h          k          l          e         ei    coldtip     sample       temp
      1   -18.0003      1.925      7.000  38601.000      2.000    41.5367   -26.8205  -168.3759   -38.9932    20.0000     5.0000     4.0000    24.0000    22.0000     4.0000     4.0000    22.0000    20.7702    41.5152    -0.2816     1.4769    -0.4889     0.0000    14.4503    14.3689    19.1865    14.400
      2   -18.1502      1.913     11.000  38601.000      2.000    41.5367   -26.8205  -168.3759   -38.9932    20.0000     5.0000     4.0000    24.0000    22.0000     4.0000     4.0000    22.0000    20.7702    41.5152    -0.2782     1.4776    -0.4894     0.0000    14.4503    14.3807    19.1891    14.400
      3   -18.2997      1.897      4.000  38601.000      2.000    41.5367   -26.8205  -168.3759   -38.9932    20.0000     5.0000     4.0000    24.0000    22.0000     4.0000     4.0000    22.0000    20.7702    41.5152    -0.2747     1.4782    -0.4900     0.0000    14.4503    14.3863    19.1955    14.400
      4   -18.4497      1.902      7.000  38601.000      2.000    41.5367   -26.8205  -168.3759   -38.9932    20.0000     5.0000     4.0000    24.0000    22.0000     4.0000     4.0000    22.0000    20.7702    41.5152    -0.2713     1.4788    -0.4905     0.0000    14.4503    14.3726    19.2016    14.400
      5   -18.5993      1.914      5.000  38601.000      2.000    41.5367   -26.8205  -168.3759   -38.9932    20.0000     5.0000     4.0000    24.0000    22.0000     4.0000     4.0000    22.0000    20.7702    41.5152    -0.2679     1.4795    -0.4911     0.0000    14.4503    14.3885    19.2064    14.400
      6   -18.7496      1.898      4.000  38601.000      2.000    41.5367   -26.8205  -168.3759   -38.9931    20.0000     5.0000     4.0000    24.0000    22.0000     4.0000     4.0000    22.0000    20.7702    41.5152    -0.2644     1.4801    -0.4916     0.0000    14.4503    14.3745    19.2124    14.400
      7   -18.9001      1.912     10.000  38601.000      2.000    41.5367   -26.8205  -168.3759   -38.9932    20.0000     5.0000     4.0000    24.0000    22.0000     4.0000     4.0000    22.0000    20.7702    41.5152    -0.2609     1.4807    -0.4922     0.0000    14.4503    14.3894    19.2169    14.400
      8   -19.0498      1.916      7.000  38601.000      2.000    41.5367   -26.8205  -168.3759   -38.9932    20.0000     5.0000     4.0000    24.0000    22.0000     4.0000     4.0000    22.0000    20.7702    41.5152    -0.2575     1.4813    -0.4927     0.0000    14.4503    14.3789    19.2228    14.400
      9   -19.2002      1.907      7.000  38601.000      2.000    41.5367   -26.8205  -168.3759   -38.9932    20.0000     5.0000     4.0000    24.0000    22.0000     4.0000     4.0000    22.0000    20.7702    41.5152    -0.2540     1.4819    -0.4933     0.0000    14.4503    14.3752    19.2287    14.400
     10   -19.3497      1.897      9.000  38601.000      2.000    41.5367   -26.8205  -168.3759   -38.9932    20.0000     5.0000     4.0000    24.0000    22.0000     4.0000     4.0000    22.0000    20.7702    41.5152    -0.2506     1.4824    -0.4938     0.0000    14.4503    14.3921    19.2349    14.400
     11   -19.4993      1.901     11.000  38601.000      2.000    41.5367   -26.8205  -168.3759   -38.9932    20.0000     5.0000     4.0000    24.0000    22.0000     4.0000     4.0000    22.0000    20.7702    41.5152    -0.2471     1.4830    -0.4943     0.0000    14.4503    14.3817    19.2380    14.400
     12   -19.6495      1.876      9.000  38601.000      2.000    41.5367   -26.8205  -168.3759   -38.9932    20.0000     5.0000     4.0000    24.0000    22.0000     4.0000     4.0000    22.0000    20.7702    41.5152    -0.2436     1.4836    -0.4949     0.0000    14.4503    14.3934    19.2424    14.400
     13   -19.7993      1.914      7.000  38601.000      2.000    41.5367   -26.8205  -168.3759   -38.9932    20.0000     5.0000     4.0000    24.0000    22.0000     4.0000     4.0000    22.0000    20.7702    41.5152    -0.2402     1.4841    -0.4954     0.0000    14.4503    14.3858    19.2457    14.400
     14   -19.9507      1.900     14.000  38601.000      2.000    41.5367   -26.8205  -168.3759   -38.9932    20.0000     5.0000     4.0000    24.0000    22.0000     4.0000     4.0000    22.0000    20.7702    41.5152    -0.2367     1.4846    -0.4959     0.0000    14.4503    14.3813    19.2502    14.400
     15   -20.0996      1.907      8.000  38601.000      2.000    41.5367   -26.8205  -168.3759   -38.9932    20.0000     5.0000     4.0000    24.0000    22.0000     4.0000     4.0000    22.0000    20.7702    41.5152    -0.2332     1.4852    -0.4964     0.0000    14.4503    14.3903    19.2520    14.400
     16   -20.2503      1.888      5.000  38601.000      2.000    41.5367   -26.8205  -168.3759   -38.9932    20.0000     5.0000     4.0000    24.0000    22.0000     4.0000     4.0000    22.0000    20.7702    41.5152    -0.2297     1.4857    -0.4969     0.0000    14.4503    14.3829    19.2561    14.400
     17   -20.3994      1.909      3.000  38601.000      2.000    41.5367   -26.8205  -168.3759   -38.9932    20.0000     5.0000     4.0000    24.0000    22.0000     4.0000     4.0000    22.0000    20.7702    41.5152    -0.2263     1.4862    -0.4974     0.0000    14.4503    14.3990    19.2610    14.400
     18   -20.5498      1.894      4.000  38601.000      2.000    41.5367   -26.8205  -168.3759   -38.9932    20.0000     5.0000     4.0000    24.0000    22.0000     4.0000     4.0000    22.0000    20.7702    41.5152    -0.2228     1.4867    -0.4980     0.0000    14.4503    14.3878    19.2643    14.400
     19   -20.6992      1.900     10.000  38601.000      2.000    41.5367   -26.8205  -168.3759   -38.9932    20.0000     5.0000     4.0000    24.0000    22.0000     4.0000     4.0000    22.0000    20.7702    41.5152    -0.2193     1.4871    -0.4985     0.0000    14.4503    14.3984    19.2654    14.400
     20   -20.8500      1.897      8.000  38601.000      2.000    41.5367   -26.8205  -168.3759   -38.9932    20.0000     5.0000     4.0000    24.0000    22.0000     4.0000     4.0000    22.0000    20.7702    41.5152    -0.2159     1.4876    -0.4990     0.0000    14.4503    14.3896    19.2701    14.400
     21   -21.0002      1.891      8.000  38601.000      2.000    41.5367   -26.8205  -168.3759   -38.9932    20.0000     5.0000     4.0000    24.0000    22.0000     4.0000     4.0000    22.0000    20.7702    41.5152    -0.2124     1.4881    -0.4995     0.0000    14.4503    14.3878    19.2730    14.400
     22   -21.1503      1.895      9.000  38601.000      2.000    41.5367   -26.8205  -168.3759   -38.9932    20.0000     5.0000     4.0000    24.0000    22.0000     4.0000     4.0000    22.0000    20.7702    41.5152    -0.2089     1.4885    -0.4999     0.0000    14.4503    14.3884    19.2745    14.400
     23   -21.2997      1.902      3.000  38601.000      2.000    41.5367   -26.8205  -168.3759   -38.9932    20.0000     5.0000     4.0000    24.0000    22.0000     4.0000     4.0000    22.0000    20.7702    41.5152    -0.2054     1.4890    -0.5004     0.0000    14.4503    14.3899    19.2801    14.400
     24   -21.4496      1.901      7.000  38601.000      2.000    41.5367   -26.8205  -168.3759   -38.9931    20.0000     5.0000     4.0000    24.0000    22.0000     4.0000     4.0000    22.0000    20.7702    41.5152    -0.2019     1.4894    -0.5009     0.0000    14.4503    14.3874    19.2819    14.400
     25   -21.5991      1.897      6.000  38601.000      2.000    41.5367   -26.8205  -168.3759   -38.9932    20.0000     5.0000     4.0000    24.0000    22.0000     4.0000     4.0000    22.0000    20.7702    41.5152    -0.1985     1.4898    -0.5014     0.0000    14.4503    14.3936    19.2826    14.400
# Sum of Counts = 183
# Center of Mass = -19.767048+/-2.067916
# Full Width Half-Maximum = 2.084625+/-0.852105
# 9:29:43 PM  2/22/2025   scan completed.
