# scan = 786
# date = 2/22/2025
# time = 7:59:10 PM
# proposal = 33477
# experiment = Commissioning and enabling the 4-circle capability at VERITAS
# experiment_number = 1046
# command = scan omega -18 -21.6 0.15
# builtin_command = scan omega -18 -21.6 0.15
# users = Feng Ye, Mike McDowell, Jiasen Guo, Adam Aczel, Kaleb Burrage, Wei Tian, Bing Li, Zachary Morgan
# local_contact = Wei Tian
# scan_title = MnWO4, (0.25 -1.5 0.5) & (0.216 -1.5 0.458) OP, at T = 5.3643 K, warming up
# monochromator = PG002
# analyzer = Pg002
# sense = +-+
# collimation = 40-40-40-80
# samplename = La2Ni7, MnWO4
# sampletype = crystal
# samplemosaic = 30.000000
# latticeconstants = 4.824069,5.755582,4.999231,89.932854,88.939129,90.018476
# ubmatrix = 0.016958,0.172722,0.013747,0.204090,-0.011993,-0.036006,-0.032332,0.014503,-0.196318
# mode = 0
# plane_normal = 0.000000,0.000000,0.000000
# ubconf = UBmatrix-MnWO4-final.dat
# preset_type = normal 
# preset_channel = mcu
# preset_value = 2.000000
# def_x = omega
# def_y = detector
# col_headers = 
#   Pt.      omega       time   detector    monitor        mcu         m2        chi        phi     2theta   slitb_bt   slitb_lf   slitb_rt   slitb_tp   slita_bt   slita_lf   slita_rt   slita_tp         a1         a2          h          k          l          e         ei    coldtip     sample       temp
      1   -18.0003      1.903      3.000  38601.000      2.000    41.5367   -26.8205  -168.3759   -38.9929    20.0000     5.0000     4.0000    24.0000    22.0000     4.0000     4.0000    22.0000    20.7702    41.5152    -0.2816     1.4769    -0.4889     0.0000    14.4503     5.3758    15.1663     5.400
      2   -18.1502      1.913      4.000  38601.000      2.000    41.5367   -26.8205  -168.3759   -38.9929    20.0000     5.0000     4.0000    24.0000    22.0000     4.0000     4.0000    22.0000    20.7702    41.5152    -0.2782     1.4776    -0.4894     0.0000    14.4503     5.3699    15.1667     5.400
      3   -18.2996      1.879      3.000  38601.000      2.000    41.5367   -26.8205  -168.3759   -38.9929    20.0000     5.0000     4.0000    24.0000    22.0000     4.0000     4.0000    22.0000    20.7702    41.5152    -0.2747     1.4782    -0.4900     0.0000    14.4503     5.3783    15.1662     5.400
      4   -18.4499      1.912      4.000  38601.000      2.000    41.5367   -26.8205  -168.3759   -38.9929    20.0000     5.0000     4.0000    24.0000    22.0000     4.0000     4.0000    22.0000    20.7702    41.5152    -0.2713     1.4788    -0.4905     0.0000    14.4503     5.3778    15.1683     5.400
      5   -18.5992      1.896     11.000  38601.000      2.000    41.5367   -26.8205  -168.3759   -38.9929    20.0000     5.0000     4.0000    24.0000    22.0000     4.0000     4.0000    22.0000    20.7702    41.5152    -0.2679     1.4795    -0.4911     0.0000    14.4503     5.3814    15.1694     5.400
      6   -18.7495      1.884     23.000  38601.000      2.000    41.5367   -26.8205  -168.3759   -38.9929    20.0000     5.0000     4.0000    24.0000    22.0000     4.0000     4.0000    22.0000    20.7702    41.5152    -0.2644     1.4801    -0.4916     0.0000    14.4503     5.3765    15.1696     5.400
      7   -18.9000      1.927     96.000  38601.000      2.000    41.5367   -26.8205  -168.3759   -38.9929    20.0000     5.0000     4.0000    24.0000    22.0000     4.0000     4.0000    22.0000    20.7702    41.5152    -0.2609     1.4807    -0.4922     0.0000    14.4503     5.3819    15.1695     5.400
      8   -19.0502      1.899    356.000  38601.000      2.000    41.5367   -26.8205  -168.3759   -38.9929    20.0000     5.0000     4.0000    24.0000    22.0000     4.0000     4.0000    22.0000    20.7702    41.5152    -0.2575     1.4813    -0.4927     0.0000    14.4503     5.3769    15.1701     5.400
      9   -19.2000      1.902    940.000  38601.000      2.000    41.5367   -26.8205  -168.3759   -38.9929    20.0000     5.0000     4.0000    24.0000    22.0000     4.0000     4.0000    22.0000    20.7702    41.5152    -0.2540     1.4819    -0.4933     0.0000    14.4503     5.3788    15.1705     5.400
     10   -19.3500      1.905   2093.000  38601.000      2.000    41.5367   -26.8205  -168.3759   -38.9929    20.0000     5.0000     4.0000    24.0000    22.0000     4.0000     4.0000    22.0000    20.7702    41.5152    -0.2505     1.4824    -0.4938     0.0000    14.4503     5.3856    15.1706     5.400
     11   -19.4992      1.905   2426.000  38601.000      2.000    41.5367   -26.8205  -168.3759   -38.9929    20.0000     5.0000     4.0000    24.0000    22.0000     4.0000     4.0000    22.0000    20.7702    41.5152    -0.2471     1.4830    -0.4943     0.0000    14.4503     5.3843    15.1707     5.400
     12   -19.6494      1.903   1288.000  38601.000      2.000    41.5367   -26.8205  -168.3759   -38.9929    20.0000     5.0000     4.0000    24.0000    22.0000     4.0000     4.0000    22.0000    20.7702    41.5152    -0.2436     1.4835    -0.4949     0.0000    14.4503     5.3878    15.1714     5.400
     13   -19.7994      1.893    274.000  38601.000      2.000    41.5367   -26.8205  -168.3759   -38.9929    20.0000     5.0000     4.0000    24.0000    22.0000     4.0000     4.0000    22.0000    20.7702    41.5152    -0.2402     1.4841    -0.4954     0.0000    14.4503     5.3823    15.1731     5.400
     14   -19.9507      1.902     80.000  38601.000      2.000    41.5367   -26.8205  -168.3759   -38.9929    20.0000     5.0000     4.0000    24.0000    22.0000     4.0000     4.0000    22.0000    20.7702    41.5152    -0.2367     1.4846    -0.4959     0.0000    14.4503     5.3821    15.1736     5.400
     15   -20.0996      1.906     38.000  38601.000      2.000    41.5367   -26.8205  -168.3759   -38.9929    20.0000     5.0000     4.0000    24.0000    22.0000     4.0000     4.0000    22.0000    20.7702    41.5152    -0.2332     1.4851    -0.4964     0.0000    14.4503     5.3898    15.1728     5.400
     16   -20.2504      1.911     22.000  38601.000      2.000    41.5367   -26.8205  -168.3759   -38.9929    20.0000     5.0000     4.0000    24.0000    22.0000     4.0000     4.0000    22.0000    20.7702    41.5152    -0.2297     1.4857    -0.4969     0.0000    14.4503     5.3840    15.1750     5.400
     17   -20.3996      1.889     21.000  38601.000      2.000    41.5367   -26.8205  -168.3759   -38.9929    20.0000     5.0000     4.0000    24.0000    22.0000     4.0000     4.0000    22.0000    20.7702    41.5152    -0.2263     1.4862    -0.4974     0.0000    14.4503     5.3885    15.1745     5.400
     18   -20.5494      1.887     14.000  38601.000      2.000    41.5367   -26.8205  -168.3759   -38.9929    20.0000     5.0000     4.0000    24.0000    22.0000     4.0000     4.0000    22.0000    20.7702    41.5152    -0.2228     1.4867    -0.4980     0.0000    14.4503     5.3903    15.1748     5.400
     19   -20.6992      1.909     17.000  38601.000      2.000    41.5367   -26.8205  -168.3759   -38.9929    20.0000     5.0000     4.0000    24.0000    22.0000     4.0000     4.0000    22.0000    20.7702    41.5152    -0.2193     1.4871    -0.4985     0.0000    14.4503     5.3860    15.1757     5.400
     20   -20.8498      1.905     11.000  38601.000      2.000    41.5367   -26.8205  -168.3759   -38.9929    20.0000     5.0000     4.0000    24.0000    22.0000     4.0000     4.0000    22.0000    20.7702    41.5152    -0.2159     1.4876    -0.4990     0.0000    14.4503     5.3894    15.1753     5.400
     21   -21.0003      1.907      4.000  38601.000      2.000    41.5367   -26.8205  -168.3759   -38.9929    20.0000     5.0000     4.0000    24.0000    22.0000     4.0000     4.0000    22.0000    20.7702    41.5152    -0.2124     1.4881    -0.4995     0.0000    14.4503     5.3862    15.1758     5.400
     22   -21.1504      1.905      4.000  38601.000      2.000    41.5367   -26.8205  -168.3759   -38.9929    20.0000     5.0000     4.0000    24.0000    22.0000     4.0000     4.0000    22.0000    20.7702    41.5152    -0.2089     1.4885    -0.4999     0.0000    14.4503     5.3882    15.1763     5.400
     23   -21.2998      1.915      4.000  38601.000      2.000    41.5367   -26.8205  -168.3759   -38.9929    20.0000     5.0000     4.0000    24.0000    22.0000     4.0000     4.0000    22.0000    20.7702    41.5152    -0.2054     1.4890    -0.5004     0.0000    14.4503     5.3908    15.1763     5.400
     24   -21.4499      1.901      6.000  38601.000      2.000    41.5367   -26.8205  -168.3759   -38.9929    20.0000     5.0000     4.0000    24.0000    22.0000     4.0000     4.0000    22.0000    20.7702    41.5152    -0.2019     1.4894    -0.5009     0.0000    14.4503     5.3933    15.1775     5.400
     25   -21.5991      1.917      6.000  38601.000      2.000    41.5367   -26.8205  -168.3759   -38.9929    20.0000     5.0000     4.0000    24.0000    22.0000     4.0000     4.0000    22.0000    20.7702    41.5152    -0.1985     1.4898    -0.5014     0.0000    14.4503     5.3897    15.1776     5.400
# Sum of Counts = 7748
# Center of Mass = -19.448662+/-0.312485
# Full Width Half-Maximum = 0.516694+/-0.145612
# 8:00:31 PM  2/22/2025   scan completed.
